Mar. 28, 2018   20:27:57
Chronopotentiometry
File: c:\users\lingd\google drive\Data Source:  Experiment
Instrument Model:  CHI660E
Header: 
Note: 

Cathodic Current (A) = 0.1517
Anodic Current (A) = 0.1517
Init P/N = N
Data Storage Interval (s) = 0.001
High E Limit (V) = 0
Low E Limit (V) = -1
Cathodic Time (s) = 10
Anodic Time (s) = 10
Current Switching Polarity = Potential
Segment = 5

Time/sec, Potential/V

1.000e-3, -8.906e-1
2.000e-3, -8.999e-1
3.000e-3, -9.011e-1
4.000e-3, -9.016e-1
5.000e-3, -9.040e-1
6.000e-3, -9.073e-1
7.000e-3, -9.109e-1
8.000e-3, -9.145e-1
9.000e-3, -9.179e-1
1.000e-2, -9.212e-1
1.100e-2, -9.243e-1
1.200e-2, -9.273e-1
1.300e-2, -9.302e-1
1.400e-2, -9.330e-1
1.500e-2, -9.356e-1
1.600e-2, -9.382e-1
1.700e-2, -9.407e-1
1.800e-2, -9.430e-1
1.900e-2, -9.454e-1
2.000e-2, -9.476e-1
2.100e-2, -9.498e-1
2.200e-2, -9.519e-1
2.300e-2, -9.540e-1
2.400e-2, -9.560e-1
2.500e-2, -9.580e-1
2.600e-2, -9.600e-1
2.700e-2, -9.619e-1
2.800e-2, -9.637e-1
2.900e-2, -9.655e-1
3.000e-2, -9.673e-1
3.100e-2, -9.691e-1
3.200e-2, -9.708e-1
3.300e-2, -9.725e-1
3.400e-2, -9.741e-1
3.500e-2, -9.758e-1
3.600e-2, -9.774e-1
3.700e-2, -9.790e-1
3.800e-2, -9.806e-1
3.900e-2, -9.820e-1
4.000e-2, -9.835e-1
4.100e-2, -9.850e-1
4.200e-2, -9.864e-1
4.300e-2, -9.879e-1
4.400e-2, -9.893e-1
4.500e-2, -9.908e-1
4.600e-2, -9.921e-1
4.700e-2, -9.935e-1
4.800e-2, -9.948e-1
4.900e-2, -9.962e-1
5.000e-2, -9.975e-1
5.100e-2, -9.988e-1
5.200e-2, -5.537e-1
5.300e-2, -5.246e-1
5.400e-2, -5.068e-1
5.500e-2, -4.941e-1
5.600e-2, -4.840e-1
5.700e-2, -4.762e-1
5.800e-2, -4.702e-1
5.900e-2, -4.647e-1
6.000e-2, -4.589e-1
6.100e-2, -4.532e-1
6.200e-2, -4.479e-1
6.300e-2, -4.428e-1
6.400e-2, -4.379e-1
6.500e-2, -4.332e-1
6.600e-2, -4.287e-1
6.700e-2, -4.245e-1
6.800e-2, -4.205e-1
6.900e-2, -4.167e-1
7.000e-2, -4.131e-1
7.100e-2, -4.096e-1
7.200e-2, -4.062e-1
7.300e-2, -4.031e-1
7.400e-2, -4.000e-1
7.500e-2, -3.970e-1
7.600e-2, -3.942e-1
7.700e-2, -3.914e-1
7.800e-2, -3.887e-1
7.900e-2, -3.860e-1
8.000e-2, -3.835e-1
8.100e-2, -3.811e-1
8.200e-2, -3.787e-1
8.300e-2, -3.763e-1
8.400e-2, -3.741e-1
8.500e-2, -3.718e-1
8.600e-2, -3.696e-1
8.700e-2, -3.675e-1
8.800e-2, -3.654e-1
8.900e-2, -3.634e-1
9.000e-2, -3.614e-1
9.100e-2, -3.595e-1
9.200e-2, -3.576e-1
9.300e-2, -3.557e-1
9.400e-2, -3.539e-1
9.500e-2, -3.521e-1
9.600e-2, -3.504e-1
9.700e-2, -3.486e-1
9.800e-2, -3.468e-1
9.900e-2, -3.451e-1
1.000e-1, -3.435e-1
1.010e-1, -3.419e-1
1.020e-1, -3.403e-1
1.030e-1, -3.387e-1
1.040e-1, -3.371e-1
1.050e-1, -3.356e-1
1.060e-1, -3.341e-1
1.070e-1, -3.326e-1
1.080e-1, -3.311e-1
1.090e-1, -3.297e-1
1.100e-1, -3.282e-1
1.110e-1, -3.268e-1
1.120e-1, -3.254e-1
1.130e-1, -3.240e-1
1.140e-1, -3.226e-1
1.150e-1, -3.213e-1
1.160e-1, -3.199e-1
1.170e-1, -3.187e-1
1.180e-1, -3.173e-1
1.190e-1, -3.160e-1
1.200e-1, -3.148e-1
1.210e-1, -3.135e-1
1.220e-1, -3.122e-1
1.230e-1, -3.109e-1
1.240e-1, -3.097e-1
1.250e-1, -3.085e-1
1.260e-1, -3.072e-1
1.270e-1, -3.060e-1
1.280e-1, -3.048e-1
1.290e-1, -3.037e-1
1.300e-1, -3.025e-1
1.310e-1, -3.013e-1
1.320e-1, -3.001e-1
1.330e-1, -2.990e-1
1.340e-1, -2.979e-1
1.350e-1, -2.968e-1
1.360e-1, -2.957e-1
1.370e-1, -2.946e-1
1.380e-1, -2.936e-1
1.390e-1, -2.926e-1
1.400e-1, -2.916e-1
1.410e-1, -2.906e-1
1.420e-1, -2.896e-1
1.430e-1, -2.886e-1
1.440e-1, -2.876e-1
1.450e-1, -2.867e-1
1.460e-1, -2.858e-1
1.470e-1, -2.850e-1
1.480e-1, -2.843e-1
1.490e-1, -2.835e-1
1.500e-1, -2.828e-1
1.510e-1, -2.820e-1
1.520e-1, -2.813e-1
1.530e-1, -2.806e-1
1.540e-1, -2.797e-1
1.550e-1, -2.789e-1
1.560e-1, -2.780e-1
1.570e-1, -2.772e-1
1.580e-1, -2.763e-1
1.590e-1, -2.753e-1
1.600e-1, -2.745e-1
1.610e-1, -2.735e-1
1.620e-1, -2.726e-1
1.630e-1, -2.716e-1
1.640e-1, -2.706e-1
1.650e-1, -2.695e-1
1.660e-1, -2.684e-1
1.670e-1, -2.673e-1
1.680e-1, -2.660e-1
1.690e-1, -2.648e-1
1.700e-1, -2.636e-1
1.710e-1, -2.623e-1
1.720e-1, -2.612e-1
1.730e-1, -2.602e-1
1.740e-1, -2.593e-1
1.750e-1, -2.584e-1
1.760e-1, -2.576e-1
1.770e-1, -2.568e-1
1.780e-1, -2.563e-1
1.790e-1, -2.559e-1
1.800e-1, -2.554e-1
1.810e-1, -2.549e-1
1.820e-1, -2.543e-1
1.830e-1, -2.537e-1
1.840e-1, -2.531e-1
1.850e-1, -2.527e-1
1.860e-1, -2.524e-1
1.870e-1, -2.520e-1
1.880e-1, -2.517e-1
1.890e-1, -2.512e-1
1.900e-1, -2.508e-1
1.910e-1, -2.503e-1
1.920e-1, -2.498e-1
1.930e-1, -2.493e-1
1.940e-1, -2.487e-1
1.950e-1, -2.481e-1
1.960e-1, -2.476e-1
1.970e-1, -2.470e-1
1.980e-1, -2.464e-1
1.990e-1, -2.458e-1
2.000e-1, -2.452e-1
2.010e-1, -2.446e-1
2.020e-1, -2.439e-1
2.030e-1, -2.433e-1
2.040e-1, -2.427e-1
2.050e-1, -2.421e-1
2.060e-1, -2.415e-1
2.070e-1, -2.409e-1
2.080e-1, -2.403e-1
2.090e-1, -2.397e-1
2.100e-1, -2.391e-1
2.110e-1, -2.385e-1
2.120e-1, -2.379e-1
2.130e-1, -2.373e-1
2.140e-1, -2.367e-1
2.150e-1, -2.360e-1
2.160e-1, -2.355e-1
2.170e-1, -2.349e-1
2.180e-1, -2.343e-1
2.190e-1, -2.337e-1
2.200e-1, -2.331e-1
2.210e-1, -2.325e-1
2.220e-1, -2.319e-1
2.230e-1, -2.313e-1
2.240e-1, -2.308e-1
2.250e-1, -2.301e-1
2.260e-1, -2.296e-1
2.270e-1, -2.290e-1
2.280e-1, -2.284e-1
2.290e-1, -2.278e-1
2.300e-1, -2.273e-1
2.310e-1, -2.267e-1
2.320e-1, -2.261e-1
2.330e-1, -2.255e-1
2.340e-1, -2.250e-1
2.350e-1, -2.244e-1
2.360e-1, -2.239e-1
2.370e-1, -2.233e-1
2.380e-1, -2.227e-1
2.390e-1, -2.222e-1
2.400e-1, -2.216e-1
2.410e-1, -2.210e-1
2.420e-1, -2.205e-1
2.430e-1, -2.199e-1
2.440e-1, -2.194e-1
2.450e-1, -2.189e-1
2.460e-1, -2.183e-1
2.470e-1, -2.177e-1
2.480e-1, -2.172e-1
2.490e-1, -2.166e-1
2.500e-1, -2.161e-1
2.510e-1, -2.156e-1
2.520e-1, -2.151e-1
2.530e-1, -2.145e-1
2.540e-1, -2.140e-1
2.550e-1, -2.134e-1
2.560e-1, -2.129e-1
2.570e-1, -2.124e-1
2.580e-1, -2.118e-1
2.590e-1, -2.113e-1
2.600e-1, -2.108e-1
2.610e-1, -2.102e-1
2.620e-1, -2.098e-1
2.630e-1, -2.092e-1
2.640e-1, -2.087e-1
2.650e-1, -2.081e-1
2.660e-1, -2.076e-1
2.670e-1, -2.071e-1
2.680e-1, -2.066e-1
2.690e-1, -2.061e-1
2.700e-1, -2.056e-1
2.710e-1, -2.051e-1
2.720e-1, -2.046e-1
2.730e-1, -2.041e-1
2.740e-1, -2.036e-1
2.750e-1, -2.031e-1
2.760e-1, -2.026e-1
2.770e-1, -2.021e-1
2.780e-1, -2.016e-1
2.790e-1, -2.011e-1
2.800e-1, -2.006e-1
2.810e-1, -2.001e-1
2.820e-1, -1.996e-1
2.830e-1, -1.991e-1
2.840e-1, -1.986e-1
2.850e-1, -1.982e-1
2.860e-1, -1.976e-1
2.870e-1, -1.971e-1
2.880e-1, -1.967e-1
2.890e-1, -1.962e-1
2.900e-1, -1.957e-1
2.910e-1, -1.952e-1
2.920e-1, -1.947e-1
2.930e-1, -1.942e-1
2.940e-1, -1.937e-1
2.950e-1, -1.933e-1
2.960e-1, -1.928e-1
2.970e-1, -1.923e-1
2.980e-1, -1.918e-1
2.990e-1, -1.913e-1
3.000e-1, -1.909e-1
3.010e-1, -1.904e-1
3.020e-1, -1.899e-1
3.030e-1, -1.894e-1
3.040e-1, -1.890e-1
3.050e-1, -1.885e-1
3.060e-1, -1.880e-1
3.070e-1, -1.875e-1
3.080e-1, -1.871e-1
3.090e-1, -1.866e-1
3.100e-1, -1.861e-1
3.110e-1, -1.857e-1
3.120e-1, -1.852e-1
3.130e-1, -1.848e-1
3.140e-1, -1.843e-1
3.150e-1, -1.838e-1
3.160e-1, -1.834e-1
3.170e-1, -1.829e-1
3.180e-1, -1.824e-1
3.190e-1, -1.820e-1
3.200e-1, -1.815e-1
3.210e-1, -1.811e-1
3.220e-1, -1.806e-1
3.230e-1, -1.802e-1
3.240e-1, -1.797e-1
3.250e-1, -1.793e-1
3.260e-1, -1.788e-1
3.270e-1, -1.783e-1
3.280e-1, -1.779e-1
3.290e-1, -1.775e-1
3.300e-1, -1.771e-1
3.310e-1, -1.766e-1
3.320e-1, -1.761e-1
3.330e-1, -1.757e-1
3.340e-1, -1.752e-1
3.350e-1, -1.748e-1
3.360e-1, -1.743e-1
3.370e-1, -1.739e-1
3.380e-1, -1.734e-1
3.390e-1, -1.730e-1
3.400e-1, -1.725e-1
3.410e-1, -1.721e-1
3.420e-1, -1.717e-1
3.430e-1, -1.712e-1
3.440e-1, -1.708e-1
3.450e-1, -1.703e-1
3.460e-1, -1.699e-1
3.470e-1, -1.695e-1
3.480e-1, -1.690e-1
3.490e-1, -1.686e-1
3.500e-1, -1.682e-1
3.510e-1, -1.677e-1
3.520e-1, -1.673e-1
3.530e-1, -1.669e-1
3.540e-1, -1.665e-1
3.550e-1, -1.660e-1
3.560e-1, -1.656e-1
3.570e-1, -1.652e-1
3.580e-1, -1.647e-1
3.590e-1, -1.643e-1
3.600e-1, -1.639e-1
3.610e-1, -1.635e-1
3.620e-1, -1.630e-1
3.630e-1, -1.627e-1
3.640e-1, -1.622e-1
3.650e-1, -1.618e-1
3.660e-1, -1.614e-1
3.670e-1, -1.609e-1
3.680e-1, -1.605e-1
3.690e-1, -1.601e-1
3.700e-1, -1.597e-1
3.710e-1, -1.593e-1
3.720e-1, -1.588e-1
3.730e-1, -1.584e-1
3.740e-1, -1.580e-1
3.750e-1, -1.576e-1
3.760e-1, -1.572e-1
3.770e-1, -1.567e-1
3.780e-1, -1.563e-1
3.790e-1, -1.559e-1
3.800e-1, -1.555e-1
3.810e-1, -1.551e-1
3.820e-1, -1.547e-1
3.830e-1, -1.543e-1
3.840e-1, -1.538e-1
3.850e-1, -1.535e-1
3.860e-1, -1.530e-1
3.870e-1, -1.526e-1
3.880e-1, -1.522e-1
3.890e-1, -1.518e-1
3.900e-1, -1.514e-1
3.910e-1, -1.510e-1
3.920e-1, -1.505e-1
3.930e-1, -1.501e-1
3.940e-1, -1.498e-1
3.950e-1, -1.493e-1
3.960e-1, -1.489e-1
3.970e-1, -1.485e-1
3.980e-1, -1.481e-1
3.990e-1, -1.477e-1
4.000e-1, -1.473e-1
4.010e-1, -1.469e-1
4.020e-1, -1.465e-1
4.030e-1, -1.461e-1
4.040e-1, -1.457e-1
4.050e-1, -1.453e-1
4.060e-1, -1.449e-1
4.070e-1, -1.445e-1
4.080e-1, -1.441e-1
4.090e-1, -1.437e-1
4.100e-1, -1.433e-1
4.110e-1, -1.429e-1
4.120e-1, -1.424e-1
4.130e-1, -1.421e-1
4.140e-1, -1.416e-1
4.150e-1, -1.413e-1
4.160e-1, -1.409e-1
4.170e-1, -1.405e-1
4.180e-1, -1.401e-1
4.190e-1, -1.397e-1
4.200e-1, -1.393e-1
4.210e-1, -1.389e-1
4.220e-1, -1.385e-1
4.230e-1, -1.381e-1
4.240e-1, -1.377e-1
4.250e-1, -1.373e-1
4.260e-1, -1.369e-1
4.270e-1, -1.365e-1
4.280e-1, -1.361e-1
4.290e-1, -1.357e-1
4.300e-1, -1.353e-1
4.310e-1, -1.350e-1
4.320e-1, -1.346e-1
4.330e-1, -1.342e-1
4.340e-1, -1.338e-1
4.350e-1, -1.334e-1
4.360e-1, -1.330e-1
4.370e-1, -1.326e-1
4.380e-1, -1.322e-1
4.390e-1, -1.318e-1
4.400e-1, -1.314e-1
4.410e-1, -1.310e-1
4.420e-1, -1.306e-1
4.430e-1, -1.302e-1
4.440e-1, -1.299e-1
4.450e-1, -1.295e-1
4.460e-1, -1.291e-1
4.470e-1, -1.287e-1
4.480e-1, -1.283e-1
4.490e-1, -1.279e-1
4.500e-1, -1.275e-1
4.510e-1, -1.272e-1
4.520e-1, -1.268e-1
4.530e-1, -1.264e-1
4.540e-1, -1.260e-1
4.550e-1, -1.256e-1
4.560e-1, -1.253e-1
4.570e-1, -1.249e-1
4.580e-1, -1.245e-1
4.590e-1, -1.241e-1
4.600e-1, -1.237e-1
4.610e-1, -1.234e-1
4.620e-1, -1.230e-1
4.630e-1, -1.226e-1
4.640e-1, -1.222e-1
4.650e-1, -1.219e-1
4.660e-1, -1.215e-1
4.670e-1, -1.211e-1
4.680e-1, -1.207e-1
4.690e-1, -1.203e-1
4.700e-1, -1.200e-1
4.710e-1, -1.196e-1
4.720e-1, -1.192e-1
4.730e-1, -1.189e-1
4.740e-1, -1.185e-1
4.750e-1, -1.181e-1
4.760e-1, -1.177e-1
4.770e-1, -1.173e-1
4.780e-1, -1.169e-1
4.790e-1, -1.166e-1
4.800e-1, -1.162e-1
4.810e-1, -1.158e-1
4.820e-1, -1.154e-1
4.830e-1, -1.151e-1
4.840e-1, -1.147e-1
4.850e-1, -1.143e-1
4.860e-1, -1.140e-1
4.870e-1, -1.136e-1
4.880e-1, -1.132e-1
4.890e-1, -1.128e-1
4.900e-1, -1.125e-1
4.910e-1, -1.121e-1
4.920e-1, -1.117e-1
4.930e-1, -1.113e-1
4.940e-1, -1.109e-1
4.950e-1, -1.106e-1
4.960e-1, -1.102e-1
4.970e-1, -1.099e-1
4.980e-1, -1.095e-1
4.990e-1, -1.091e-1
5.000e-1, -1.088e-1
5.010e-1, -1.084e-1
5.020e-1, -1.080e-1
5.030e-1, -1.077e-1
5.040e-1, -1.073e-1
5.050e-1, -1.070e-1
5.060e-1, -1.066e-1
5.070e-1, -1.062e-1
5.080e-1, -1.058e-1
5.090e-1, -1.054e-1
5.100e-1, -1.051e-1
5.110e-1, -1.047e-1
5.120e-1, -1.043e-1
5.130e-1, -1.040e-1
5.140e-1, -1.036e-1
5.150e-1, -1.032e-1
5.160e-1, -1.029e-1
5.170e-1, -1.025e-1
5.180e-1, -1.021e-1
5.190e-1, -1.017e-1
5.200e-1, -1.014e-1
5.210e-1, -1.010e-1
5.220e-1, -1.007e-1
5.230e-1, -1.003e-1
5.240e-1, -9.999e-2
5.250e-1, -9.956e-2
5.260e-1, -9.921e-2
5.270e-1, -9.889e-2
5.280e-1, -9.851e-2
5.290e-1, -9.816e-2
5.300e-1, -9.775e-2
5.310e-1, -9.743e-2
5.320e-1, -9.705e-2
5.330e-1, -9.670e-2
5.340e-1, -9.633e-2
5.350e-1, -9.595e-2
5.360e-1, -9.565e-2
5.370e-1, -9.525e-2
5.380e-1, -9.488e-2
5.390e-1, -9.452e-2
5.400e-1, -9.416e-2
5.410e-1, -9.382e-2
5.420e-1, -9.342e-2
5.430e-1, -9.308e-2
5.440e-1, -9.270e-2
5.450e-1, -9.233e-2
5.460e-1, -9.198e-2
5.470e-1, -9.163e-2
5.480e-1, -9.126e-2
5.490e-1, -9.089e-2
5.500e-1, -9.058e-2
5.510e-1, -9.020e-2
5.520e-1, -8.983e-2
5.530e-1, -8.948e-2
5.540e-1, -8.914e-2
5.550e-1, -8.881e-2
5.560e-1, -8.842e-2
5.570e-1, -8.808e-2
5.580e-1, -8.769e-2
5.590e-1, -8.733e-2
5.600e-1, -8.700e-2
5.610e-1, -8.664e-2
5.620e-1, -8.631e-2
5.630e-1, -8.592e-2
5.640e-1, -8.557e-2
5.650e-1, -8.521e-2
5.660e-1, -8.483e-2
5.670e-1, -8.453e-2
5.680e-1, -8.419e-2
5.690e-1, -8.385e-2
5.700e-1, -8.348e-2
5.710e-1, -8.313e-2
5.720e-1, -8.273e-2
5.730e-1, -8.241e-2
5.740e-1, -8.208e-2
5.750e-1, -8.169e-2
5.760e-1, -8.137e-2
5.770e-1, -8.098e-2
5.780e-1, -8.061e-2
5.790e-1, -8.028e-2
5.800e-1, -7.995e-2
5.810e-1, -7.962e-2
5.820e-1, -7.924e-2
5.830e-1, -7.886e-2
5.840e-1, -7.852e-2
5.850e-1, -7.815e-2
5.860e-1, -7.785e-2
5.870e-1, -7.747e-2
5.880e-1, -7.714e-2
5.890e-1, -7.676e-2
5.900e-1, -7.643e-2
5.910e-1, -7.608e-2
5.920e-1, -7.572e-2
5.930e-1, -7.540e-2
5.940e-1, -7.501e-2
5.950e-1, -7.471e-2
5.960e-1, -7.430e-2
5.970e-1, -7.395e-2
5.980e-1, -7.360e-2
5.990e-1, -7.323e-2
6.000e-1, -7.291e-2
6.010e-1, -7.255e-2
6.020e-1, -7.219e-2
6.030e-1, -7.185e-2
6.040e-1, -7.151e-2
6.050e-1, -7.117e-2
6.060e-1, -7.081e-2
6.070e-1, -7.051e-2
6.080e-1, -7.013e-2
6.090e-1, -6.978e-2
6.100e-1, -6.943e-2
6.110e-1, -6.909e-2
6.120e-1, -6.879e-2
6.130e-1, -6.841e-2
6.140e-1, -6.811e-2
6.150e-1, -6.771e-2
6.160e-1, -6.734e-2
6.170e-1, -6.700e-2
6.180e-1, -6.667e-2
6.190e-1, -6.632e-2
6.200e-1, -6.597e-2
6.210e-1, -6.563e-2
6.220e-1, -6.527e-2
6.230e-1, -6.492e-2
6.240e-1, -6.457e-2
6.250e-1, -6.422e-2
6.260e-1, -6.391e-2
6.270e-1, -6.353e-2
6.280e-1, -6.320e-2
6.290e-1, -6.284e-2
6.300e-1, -6.247e-2
6.310e-1, -6.216e-2
6.320e-1, -6.180e-2
6.330e-1, -6.149e-2
6.340e-1, -6.110e-2
6.350e-1, -6.079e-2
6.360e-1, -6.043e-2
6.370e-1, -6.009e-2
6.380e-1, -5.976e-2
6.390e-1, -5.942e-2
6.400e-1, -5.908e-2
6.410e-1, -5.874e-2
6.420e-1, -5.839e-2
6.430e-1, -5.804e-2
6.440e-1, -5.771e-2
6.450e-1, -5.741e-2
6.460e-1, -5.703e-2
6.470e-1, -5.667e-2
6.480e-1, -5.632e-2
6.490e-1, -5.601e-2
6.500e-1, -5.568e-2
6.510e-1, -5.530e-2
6.520e-1, -5.498e-2
6.530e-1, -5.462e-2
6.540e-1, -5.427e-2
6.550e-1, -5.393e-2
6.560e-1, -5.358e-2
6.570e-1, -5.324e-2
6.580e-1, -5.291e-2
6.590e-1, -5.259e-2
6.600e-1, -5.222e-2
6.610e-1, -5.189e-2
6.620e-1, -5.154e-2
6.630e-1, -5.121e-2
6.640e-1, -5.088e-2
6.650e-1, -5.052e-2
6.660e-1, -5.021e-2
6.670e-1, -4.986e-2
6.680e-1, -4.952e-2
6.690e-1, -4.919e-2
6.700e-1, -4.883e-2
6.710e-1, -4.853e-2
6.720e-1, -4.816e-2
6.730e-1, -4.784e-2
6.740e-1, -4.749e-2
6.750e-1, -4.713e-2
6.760e-1, -4.681e-2
6.770e-1, -4.646e-2
6.780e-1, -4.616e-2
6.790e-1, -4.577e-2
6.800e-1, -4.544e-2
6.810e-1, -4.512e-2
6.820e-1, -4.479e-2
6.830e-1, -4.448e-2
6.840e-1, -4.413e-2
6.850e-1, -4.381e-2
6.860e-1, -4.346e-2
6.870e-1, -4.312e-2
6.880e-1, -4.279e-2
6.890e-1, -4.243e-2
6.900e-1, -4.212e-2
6.910e-1, -4.176e-2
6.920e-1, -4.147e-2
6.930e-1, -4.111e-2
6.940e-1, -4.077e-2
6.950e-1, -4.040e-2
6.960e-1, -4.009e-2
6.970e-1, -3.980e-2
6.980e-1, -3.942e-2
6.990e-1, -3.910e-2
7.000e-1, -3.873e-2
7.010e-1, -3.842e-2
7.020e-1, -3.813e-2
7.030e-1, -3.774e-2
7.040e-1, -3.745e-2
7.050e-1, -3.707e-2
7.060e-1, -3.674e-2
7.070e-1, -3.640e-2
7.080e-1, -3.608e-2
7.090e-1, -3.577e-2
7.100e-1, -3.538e-2
7.110e-1, -3.508e-2
7.120e-1, -3.472e-2
7.130e-1, -3.440e-2
7.140e-1, -3.406e-2
7.150e-1, -3.371e-2
7.160e-1, -3.341e-2
7.170e-1, -3.307e-2
7.180e-1, -3.274e-2
7.190e-1, -3.238e-2
7.200e-1, -3.206e-2
7.210e-1, -3.173e-2
7.220e-1, -3.140e-2
7.230e-1, -3.107e-2
7.240e-1, -3.073e-2
7.250e-1, -3.041e-2
7.260e-1, -3.008e-2
7.270e-1, -2.972e-2
7.280e-1, -2.941e-2
7.290e-1, -2.907e-2
7.300e-1, -2.876e-2
7.310e-1, -2.839e-2
7.320e-1, -2.807e-2
7.330e-1, -2.772e-2
7.340e-1, -2.738e-2
7.350e-1, -2.711e-2
7.360e-1, -2.677e-2
7.370e-1, -2.643e-2
7.380e-1, -2.608e-2
7.390e-1, -2.576e-2
7.400e-1, -2.543e-2
7.410e-1, -2.509e-2
7.420e-1, -2.477e-2
7.430e-1, -2.441e-2
7.440e-1, -2.411e-2
7.450e-1, -2.377e-2
7.460e-1, -2.343e-2
7.470e-1, -2.311e-2
7.480e-1, -2.276e-2
7.490e-1, -2.247e-2
7.500e-1, -2.211e-2
7.510e-1, -2.179e-2
7.520e-1, -2.144e-2
7.530e-1, -2.112e-2
7.540e-1, -2.083e-2
7.550e-1, -2.049e-2
7.560e-1, -2.018e-2
7.570e-1, -1.982e-2
7.580e-1, -1.947e-2
7.590e-1, -1.914e-2
7.600e-1, -1.882e-2
7.610e-1, -1.853e-2
7.620e-1, -1.818e-2
7.630e-1, -1.782e-2
7.640e-1, -1.752e-2
7.650e-1, -1.718e-2
7.660e-1, -1.685e-2
7.670e-1, -1.651e-2
7.680e-1, -1.623e-2
7.690e-1, -1.583e-2
7.700e-1, -1.553e-2
7.710e-1, -1.519e-2
7.720e-1, -1.486e-2
7.730e-1, -1.457e-2
7.740e-1, -1.421e-2
7.750e-1, -1.392e-2
7.760e-1, -1.355e-2
7.770e-1, -1.320e-2
7.780e-1, -1.289e-2
7.790e-1, -1.257e-2
7.800e-1, -1.225e-2
7.810e-1, -1.194e-2
7.820e-1, -1.160e-2
7.830e-1, -1.127e-2
7.840e-1, -1.095e-2
7.850e-1, -1.064e-2
7.860e-1, -1.032e-2
7.870e-1, -1.002e-2
7.880e-1, -9.657e-3
7.890e-1, -9.338e-3
7.900e-1, -9.000e-3
7.910e-1, -8.664e-3
7.920e-1, -8.391e-3
7.930e-1, -8.042e-3
7.940e-1, -7.733e-3
7.950e-1, -7.374e-3
7.960e-1, -7.044e-3
7.970e-1, -6.734e-3
7.980e-1, -6.393e-3
7.990e-1, -6.111e-3
8.000e-1, -5.787e-3
8.010e-1, -5.468e-3
8.020e-1, -5.126e-3
8.030e-1, -4.795e-3
8.040e-1, -4.478e-3
8.050e-1, -4.152e-3
8.060e-1, -3.850e-3
8.070e-1, -3.505e-3
8.080e-1, -3.214e-3
8.090e-1, -2.836e-3
8.100e-1, -2.542e-3
8.110e-1, -2.253e-3
8.120e-1, -1.895e-3
8.130e-1, -1.600e-3
8.140e-1, -1.261e-3
8.150e-1, -9.507e-4
8.160e-1, -6.139e-4
8.170e-1, -3.226e-4
8.180e-1, -3.894e-1
8.190e-1, -4.129e-1
8.200e-1, -4.330e-1
8.210e-1, -4.489e-1
8.220e-1, -4.620e-1
8.230e-1, -4.731e-1
8.240e-1, -4.827e-1
8.250e-1, -4.914e-1
8.260e-1, -4.992e-1
8.270e-1, -5.063e-1
8.280e-1, -5.128e-1
8.290e-1, -5.188e-1
8.300e-1, -5.248e-1
8.310e-1, -5.304e-1
8.320e-1, -5.357e-1
8.330e-1, -5.406e-1
8.340e-1, -5.454e-1
8.350e-1, -5.499e-1
8.360e-1, -5.542e-1
8.370e-1, -5.583e-1
8.380e-1, -5.624e-1
8.390e-1, -5.662e-1
8.400e-1, -5.697e-1
8.410e-1, -5.732e-1
8.420e-1, -5.766e-1
8.430e-1, -5.800e-1
8.440e-1, -5.832e-1
8.450e-1, -5.865e-1
8.460e-1, -5.898e-1
8.470e-1, -5.930e-1
8.480e-1, -5.963e-1
8.490e-1, -5.995e-1
8.500e-1, -6.028e-1
8.510e-1, -6.059e-1
8.520e-1, -6.088e-1
8.530e-1, -6.116e-1
8.540e-1, -6.140e-1
8.550e-1, -6.161e-1
8.560e-1, -6.181e-1
8.570e-1, -6.202e-1
8.580e-1, -6.222e-1
8.590e-1, -6.242e-1
8.600e-1, -6.262e-1
8.610e-1, -6.283e-1
8.620e-1, -6.304e-1
8.630e-1, -6.325e-1
8.640e-1, -6.346e-1
8.650e-1, -6.368e-1
8.660e-1, -6.392e-1
8.670e-1, -6.419e-1
8.680e-1, -6.450e-1
8.690e-1, -6.480e-1
8.700e-1, -6.504e-1
8.710e-1, -6.525e-1
8.720e-1, -6.548e-1
8.730e-1, -6.572e-1
8.740e-1, -6.593e-1
8.750e-1, -6.610e-1
8.760e-1, -6.619e-1
8.770e-1, -6.625e-1
8.780e-1, -6.634e-1
8.790e-1, -6.648e-1
8.800e-1, -6.667e-1
8.810e-1, -6.688e-1
8.820e-1, -6.710e-1
8.830e-1, -6.731e-1
8.840e-1, -6.748e-1
8.850e-1, -6.762e-1
8.860e-1, -6.776e-1
8.870e-1, -6.790e-1
8.880e-1, -6.805e-1
8.890e-1, -6.819e-1
8.900e-1, -6.834e-1
8.910e-1, -6.848e-1
8.920e-1, -6.862e-1
8.930e-1, -6.876e-1
8.940e-1, -6.890e-1
8.950e-1, -6.905e-1
8.960e-1, -6.919e-1
8.970e-1, -6.934e-1
8.980e-1, -6.949e-1
8.990e-1, -6.963e-1
9.000e-1, -6.978e-1
9.010e-1, -6.992e-1
9.020e-1, -7.007e-1
9.030e-1, -7.021e-1
9.040e-1, -7.034e-1
9.050e-1, -7.048e-1
9.060e-1, -7.062e-1
9.070e-1, -7.075e-1
9.080e-1, -7.088e-1
9.090e-1, -7.101e-1
9.100e-1, -7.113e-1
9.110e-1, -7.126e-1
9.120e-1, -7.138e-1
9.130e-1, -7.151e-1
9.140e-1, -7.163e-1
9.150e-1, -7.176e-1
9.160e-1, -7.188e-1
9.170e-1, -7.199e-1
9.180e-1, -7.211e-1
9.190e-1, -7.223e-1
9.200e-1, -7.233e-1
9.210e-1, -7.244e-1
9.220e-1, -7.254e-1
9.230e-1, -7.264e-1
9.240e-1, -7.273e-1
9.250e-1, -7.282e-1
9.260e-1, -7.290e-1
9.270e-1, -7.299e-1
9.280e-1, -7.308e-1
9.290e-1, -7.316e-1
9.300e-1, -7.324e-1
9.310e-1, -7.333e-1
9.320e-1, -7.342e-1
9.330e-1, -7.351e-1
9.340e-1, -7.360e-1
9.350e-1, -7.370e-1
9.360e-1, -7.379e-1
9.370e-1, -7.388e-1
9.380e-1, -7.398e-1
9.390e-1, -7.408e-1
9.400e-1, -7.418e-1
9.410e-1, -7.427e-1
9.420e-1, -7.437e-1
9.430e-1, -7.446e-1
9.440e-1, -7.455e-1
9.450e-1, -7.465e-1
9.460e-1, -7.474e-1
9.470e-1, -7.484e-1
9.480e-1, -7.493e-1
9.490e-1, -7.503e-1
9.500e-1, -7.512e-1
9.510e-1, -7.521e-1
9.520e-1, -7.531e-1
9.530e-1, -7.540e-1
9.540e-1, -7.550e-1
9.550e-1, -7.558e-1
9.560e-1, -7.568e-1
9.570e-1, -7.577e-1
9.580e-1, -7.586e-1
9.590e-1, -7.595e-1
9.600e-1, -7.604e-1
9.610e-1, -7.614e-1
9.620e-1, -7.623e-1
9.630e-1, -7.632e-1
9.640e-1, -7.641e-1
9.650e-1, -7.649e-1
9.660e-1, -7.659e-1
9.670e-1, -7.667e-1
9.680e-1, -7.676e-1
9.690e-1, -7.685e-1
9.700e-1, -7.693e-1
9.710e-1, -7.703e-1
9.720e-1, -7.711e-1
9.730e-1, -7.720e-1
9.740e-1, -7.728e-1
9.750e-1, -7.737e-1
9.760e-1, -7.745e-1
9.770e-1, -7.754e-1
9.780e-1, -7.762e-1
9.790e-1, -7.771e-1
9.800e-1, -7.779e-1
9.810e-1, -7.787e-1
9.820e-1, -7.796e-1
9.830e-1, -7.804e-1
9.840e-1, -7.813e-1
9.850e-1, -7.821e-1
9.860e-1, -7.829e-1
9.870e-1, -7.837e-1
9.880e-1, -7.845e-1
9.890e-1, -7.853e-1
9.900e-1, -7.862e-1
9.910e-1, -7.870e-1
9.920e-1, -7.878e-1
9.930e-1, -7.885e-1
9.940e-1, -7.893e-1
9.950e-1, -7.901e-1
9.960e-1, -7.909e-1
9.970e-1, -7.917e-1
9.980e-1, -7.925e-1
9.990e-1, -7.933e-1
1.000e+0, -7.941e-1
1.001e+0, -7.948e-1
1.002e+0, -7.956e-1
1.003e+0, -7.964e-1
1.004e+0, -7.972e-1
1.005e+0, -7.979e-1
1.006e+0, -7.987e-1
1.007e+0, -7.995e-1
1.008e+0, -8.002e-1
1.009e+0, -8.010e-1
1.010e+0, -8.018e-1
1.011e+0, -8.025e-1
1.012e+0, -8.032e-1
1.013e+0, -8.040e-1
1.014e+0, -8.048e-1
1.015e+0, -8.055e-1
1.016e+0, -8.063e-1
1.017e+0, -8.069e-1
1.018e+0, -8.078e-1
1.019e+0, -8.085e-1
1.020e+0, -8.092e-1
1.021e+0, -8.099e-1
1.022e+0, -8.107e-1
1.023e+0, -8.114e-1
1.024e+0, -8.121e-1
1.025e+0, -8.129e-1
1.026e+0, -8.136e-1
1.027e+0, -8.143e-1
1.028e+0, -8.150e-1
1.029e+0, -8.157e-1
1.030e+0, -8.165e-1
1.031e+0, -8.171e-1
1.032e+0, -8.179e-1
1.033e+0, -8.186e-1
1.034e+0, -8.193e-1
1.035e+0, -8.200e-1
1.036e+0, -8.207e-1
1.037e+0, -8.214e-1
1.038e+0, -8.221e-1
1.039e+0, -8.228e-1
1.040e+0, -8.235e-1
1.041e+0, -8.242e-1
1.042e+0, -8.249e-1
1.043e+0, -8.256e-1
1.044e+0, -8.263e-1
1.045e+0, -8.269e-1
1.046e+0, -8.276e-1
1.047e+0, -8.283e-1
1.048e+0, -8.290e-1
1.049e+0, -8.297e-1
1.050e+0, -8.303e-1
1.051e+0, -8.310e-1
1.052e+0, -8.317e-1
1.053e+0, -8.324e-1
1.054e+0, -8.331e-1
1.055e+0, -8.337e-1
1.056e+0, -8.344e-1
1.057e+0, -8.350e-1
1.058e+0, -8.357e-1
1.059e+0, -8.364e-1
1.060e+0, -8.370e-1
1.061e+0, -8.377e-1
1.062e+0, -8.384e-1
1.063e+0, -8.391e-1
1.064e+0, -8.397e-1
1.065e+0, -8.404e-1
1.066e+0, -8.410e-1
1.067e+0, -8.416e-1
1.068e+0, -8.423e-1
1.069e+0, -8.429e-1
1.070e+0, -8.436e-1
1.071e+0, -8.442e-1
1.072e+0, -8.449e-1
1.073e+0, -8.455e-1
1.074e+0, -8.462e-1
1.075e+0, -8.469e-1
1.076e+0, -8.475e-1
1.077e+0, -8.481e-1
1.078e+0, -8.487e-1
1.079e+0, -8.494e-1
1.080e+0, -8.501e-1
1.081e+0, -8.507e-1
1.082e+0, -8.513e-1
1.083e+0, -8.519e-1
1.084e+0, -8.526e-1
1.085e+0, -8.532e-1
1.086e+0, -8.538e-1
1.087e+0, -8.544e-1
1.088e+0, -8.551e-1
1.089e+0, -8.557e-1
1.090e+0, -8.563e-1
1.091e+0, -8.569e-1
1.092e+0, -8.575e-1
1.093e+0, -8.582e-1
1.094e+0, -8.588e-1
1.095e+0, -8.594e-1
1.096e+0, -8.601e-1
1.097e+0, -8.607e-1
1.098e+0, -8.613e-1
1.099e+0, -8.619e-1
1.100e+0, -8.625e-1
1.101e+0, -8.631e-1
1.102e+0, -8.637e-1
1.103e+0, -8.643e-1
1.104e+0, -8.650e-1
1.105e+0, -8.655e-1
1.106e+0, -8.662e-1
1.107e+0, -8.667e-1
1.108e+0, -8.674e-1
1.109e+0, -8.679e-1
1.110e+0, -8.685e-1
1.111e+0, -8.691e-1
1.112e+0, -8.697e-1
1.113e+0, -8.704e-1
1.114e+0, -8.709e-1
1.115e+0, -8.716e-1
1.116e+0, -8.721e-1
1.117e+0, -8.727e-1
1.118e+0, -8.733e-1
1.119e+0, -8.739e-1
1.120e+0, -8.745e-1
1.121e+0, -8.751e-1
1.122e+0, -8.757e-1
1.123e+0, -8.763e-1
1.124e+0, -8.769e-1
1.125e+0, -8.775e-1
1.126e+0, -8.780e-1
1.127e+0, -8.787e-1
1.128e+0, -8.792e-1
1.129e+0, -8.798e-1
1.130e+0, -8.804e-1
1.131e+0, -8.810e-1
1.132e+0, -8.816e-1
1.133e+0, -8.822e-1
1.134e+0, -8.828e-1
1.135e+0, -8.833e-1
1.136e+0, -8.839e-1
1.137e+0, -8.844e-1
1.138e+0, -8.850e-1
1.139e+0, -8.856e-1
1.140e+0, -8.862e-1
1.141e+0, -8.867e-1
1.142e+0, -8.873e-1
1.143e+0, -8.879e-1
1.144e+0, -8.885e-1
1.145e+0, -8.890e-1
1.146e+0, -8.896e-1
1.147e+0, -8.902e-1
1.148e+0, -8.908e-1
1.149e+0, -8.913e-1
1.150e+0, -8.919e-1
1.151e+0, -8.925e-1
1.152e+0, -8.930e-1
1.153e+0, -8.936e-1
1.154e+0, -8.941e-1
1.155e+0, -8.947e-1
1.156e+0, -8.953e-1
1.157e+0, -8.958e-1
1.158e+0, -8.964e-1
1.159e+0, -8.969e-1
1.160e+0, -8.976e-1
1.161e+0, -8.981e-1
1.162e+0, -8.987e-1
1.163e+0, -8.992e-1
1.164e+0, -8.998e-1
1.165e+0, -9.004e-1
1.166e+0, -9.009e-1
1.167e+0, -9.015e-1
1.168e+0, -9.020e-1
1.169e+0, -9.025e-1
1.170e+0, -9.032e-1
1.171e+0, -9.037e-1
1.172e+0, -9.042e-1
1.173e+0, -9.048e-1
1.174e+0, -9.053e-1
1.175e+0, -9.059e-1
1.176e+0, -9.064e-1
1.177e+0, -9.070e-1
1.178e+0, -9.075e-1
1.179e+0, -9.080e-1
1.180e+0, -9.086e-1
1.181e+0, -9.091e-1
1.182e+0, -9.097e-1
1.183e+0, -9.102e-1
1.184e+0, -9.108e-1
1.185e+0, -9.113e-1
1.186e+0, -9.119e-1
1.187e+0, -9.124e-1
1.188e+0, -9.129e-1
1.189e+0, -9.135e-1
1.190e+0, -9.140e-1
1.191e+0, -9.146e-1
1.192e+0, -9.151e-1
1.193e+0, -9.156e-1
1.194e+0, -9.162e-1
1.195e+0, -9.167e-1
1.196e+0, -9.173e-1
1.197e+0, -9.178e-1
1.198e+0, -9.184e-1
1.199e+0, -9.189e-1
1.200e+0, -9.194e-1
1.201e+0, -9.199e-1
1.202e+0, -9.205e-1
1.203e+0, -9.211e-1
1.204e+0, -9.215e-1
1.205e+0, -9.221e-1
1.206e+0, -9.226e-1
1.207e+0, -9.232e-1
1.208e+0, -9.237e-1
1.209e+0, -9.242e-1
1.210e+0, -9.248e-1
1.211e+0, -9.253e-1
1.212e+0, -9.258e-1
1.213e+0, -9.264e-1
1.214e+0, -9.269e-1
1.215e+0, -9.274e-1
1.216e+0, -9.279e-1
1.217e+0, -9.285e-1
1.218e+0, -9.290e-1
1.219e+0, -9.295e-1
1.220e+0, -9.300e-1
1.221e+0, -9.306e-1
1.222e+0, -9.311e-1
1.223e+0, -9.316e-1
1.224e+0, -9.322e-1
1.225e+0, -9.326e-1
1.226e+0, -9.332e-1
1.227e+0, -9.337e-1
1.228e+0, -9.342e-1
1.229e+0, -9.348e-1
1.230e+0, -9.353e-1
1.231e+0, -9.358e-1
1.232e+0, -9.363e-1
1.233e+0, -9.369e-1
1.234e+0, -9.374e-1
1.235e+0, -9.379e-1
1.236e+0, -9.385e-1
1.237e+0, -9.389e-1
1.238e+0, -9.394e-1
1.239e+0, -9.399e-1
1.240e+0, -9.405e-1
1.241e+0, -9.410e-1
1.242e+0, -9.415e-1
1.243e+0, -9.421e-1
1.244e+0, -9.425e-1
1.245e+0, -9.430e-1
1.246e+0, -9.435e-1
1.247e+0, -9.441e-1
1.248e+0, -9.446e-1
1.249e+0, -9.451e-1
1.250e+0, -9.456e-1
1.251e+0, -9.461e-1
1.252e+0, -9.466e-1
1.253e+0, -9.471e-1
1.254e+0, -9.476e-1
1.255e+0, -9.482e-1
1.256e+0, -9.486e-1
1.257e+0, -9.492e-1
1.258e+0, -9.497e-1
1.259e+0, -9.502e-1
1.260e+0, -9.507e-1
1.261e+0, -9.512e-1
1.262e+0, -9.517e-1
1.263e+0, -9.522e-1
1.264e+0, -9.527e-1
1.265e+0, -9.532e-1
1.266e+0, -9.538e-1
1.267e+0, -9.543e-1
1.268e+0, -9.547e-1
1.269e+0, -9.553e-1
1.270e+0, -9.558e-1
1.271e+0, -9.563e-1
1.272e+0, -9.568e-1
1.273e+0, -9.573e-1
1.274e+0, -9.578e-1
1.275e+0, -9.583e-1
1.276e+0, -9.588e-1
1.277e+0, -9.593e-1
1.278e+0, -9.598e-1
1.279e+0, -9.603e-1
1.280e+0, -9.608e-1
1.281e+0, -9.613e-1
1.282e+0, -9.618e-1
1.283e+0, -9.623e-1
1.284e+0, -9.628e-1
1.285e+0, -9.633e-1
1.286e+0, -9.638e-1
1.287e+0, -9.643e-1
1.288e+0, -9.648e-1
1.289e+0, -9.653e-1
1.290e+0, -9.658e-1
1.291e+0, -9.663e-1
1.292e+0, -9.668e-1
1.293e+0, -9.673e-1
1.294e+0, -9.678e-1
1.295e+0, -9.683e-1
1.296e+0, -9.688e-1
1.297e+0, -9.692e-1
1.298e+0, -9.698e-1
1.299e+0, -9.703e-1
1.300e+0, -9.708e-1
1.301e+0, -9.712e-1
1.302e+0, -9.717e-1
1.303e+0, -9.722e-1
1.304e+0, -9.727e-1
1.305e+0, -9.732e-1
1.306e+0, -9.737e-1
1.307e+0, -9.742e-1
1.308e+0, -9.747e-1
1.309e+0, -9.752e-1
1.310e+0, -9.757e-1
1.311e+0, -9.762e-1
1.312e+0, -9.767e-1
1.313e+0, -9.771e-1
1.314e+0, -9.777e-1
1.315e+0, -9.781e-1
1.316e+0, -9.786e-1
1.317e+0, -9.791e-1
1.318e+0, -9.796e-1
1.319e+0, -9.801e-1
1.320e+0, -9.806e-1
1.321e+0, -9.810e-1
1.322e+0, -9.815e-1
1.323e+0, -9.820e-1
1.324e+0, -9.825e-1
1.325e+0, -9.830e-1
1.326e+0, -9.835e-1
1.327e+0, -9.840e-1
1.328e+0, -9.844e-1
1.329e+0, -9.849e-1
1.330e+0, -9.854e-1
1.331e+0, -9.859e-1
1.332e+0, -9.864e-1
1.333e+0, -9.869e-1
1.334e+0, -9.873e-1
1.335e+0, -9.878e-1
1.336e+0, -9.883e-1
1.337e+0, -9.888e-1
1.338e+0, -9.893e-1
1.339e+0, -9.897e-1
1.340e+0, -9.902e-1
1.341e+0, -9.907e-1
1.342e+0, -9.912e-1
1.343e+0, -9.916e-1
1.344e+0, -9.921e-1
1.345e+0, -9.927e-1
1.346e+0, -9.931e-1
1.347e+0, -9.936e-1
1.348e+0, -9.941e-1
1.349e+0, -9.945e-1
1.350e+0, -9.951e-1
1.351e+0, -9.955e-1
1.352e+0, -9.961e-1
1.353e+0, -9.965e-1
1.354e+0, -9.970e-1
1.355e+0, -9.975e-1
1.356e+0, -9.979e-1
1.357e+0, -9.984e-1
1.358e+0, -9.989e-1
1.359e+0, -9.994e-1
1.360e+0, -9.999e-1
1.361e+0, -5.607e-1
1.362e+0, -5.347e-1
1.363e+0, -5.175e-1
1.364e+0, -5.046e-1
1.365e+0, -4.936e-1
1.366e+0, -4.840e-1
1.367e+0, -4.758e-1
1.368e+0, -4.687e-1
1.369e+0, -4.626e-1
1.370e+0, -4.566e-1
1.371e+0, -4.508e-1
1.372e+0, -4.451e-1
1.373e+0, -4.395e-1
1.374e+0, -4.342e-1
1.375e+0, -4.290e-1
1.376e+0, -4.241e-1
1.377e+0, -4.195e-1
1.378e+0, -4.150e-1
1.379e+0, -4.108e-1
1.380e+0, -4.066e-1
1.381e+0, -4.027e-1
1.382e+0, -3.989e-1
1.383e+0, -3.953e-1
1.384e+0, -3.917e-1
1.385e+0, -3.883e-1
1.386e+0, -3.849e-1
1.387e+0, -3.817e-1
1.388e+0, -3.785e-1
1.389e+0, -3.755e-1
1.390e+0, -3.725e-1
1.391e+0, -3.695e-1
1.392e+0, -3.667e-1
1.393e+0, -3.639e-1
1.394e+0, -3.612e-1
1.395e+0, -3.586e-1
1.396e+0, -3.560e-1
1.397e+0, -3.534e-1
1.398e+0, -3.509e-1
1.399e+0, -3.485e-1
1.400e+0, -3.461e-1
1.401e+0, -3.438e-1
1.402e+0, -3.414e-1
1.403e+0, -3.391e-1
1.404e+0, -3.369e-1
1.405e+0, -3.347e-1
1.406e+0, -3.325e-1
1.407e+0, -3.304e-1
1.408e+0, -3.283e-1
1.409e+0, -3.262e-1
1.410e+0, -3.241e-1
1.411e+0, -3.221e-1
1.412e+0, -3.202e-1
1.413e+0, -3.182e-1
1.414e+0, -3.163e-1
1.415e+0, -3.144e-1
1.416e+0, -3.125e-1
1.417e+0, -3.106e-1
1.418e+0, -3.088e-1
1.419e+0, -3.070e-1
1.420e+0, -3.052e-1
1.421e+0, -3.034e-1
1.422e+0, -3.017e-1
1.423e+0, -2.999e-1
1.424e+0, -2.981e-1
1.425e+0, -2.965e-1
1.426e+0, -2.947e-1
1.427e+0, -2.931e-1
1.428e+0, -2.914e-1
1.429e+0, -2.897e-1
1.430e+0, -2.881e-1
1.431e+0, -2.865e-1
1.432e+0, -2.849e-1
1.433e+0, -2.833e-1
1.434e+0, -2.818e-1
1.435e+0, -2.802e-1
1.436e+0, -2.787e-1
1.437e+0, -2.772e-1
1.438e+0, -2.758e-1
1.439e+0, -2.745e-1
1.440e+0, -2.730e-1
1.441e+0, -2.717e-1
1.442e+0, -2.703e-1
1.443e+0, -2.689e-1
1.444e+0, -2.676e-1
1.445e+0, -2.664e-1
1.446e+0, -2.653e-1
1.447e+0, -2.643e-1
1.448e+0, -2.633e-1
1.449e+0, -2.623e-1
1.450e+0, -2.613e-1
1.451e+0, -2.603e-1
1.452e+0, -2.591e-1
1.453e+0, -2.581e-1
1.454e+0, -2.568e-1
1.455e+0, -2.557e-1
1.456e+0, -2.544e-1
1.457e+0, -2.532e-1
1.458e+0, -2.520e-1
1.459e+0, -2.507e-1
1.460e+0, -2.494e-1
1.461e+0, -2.481e-1
1.462e+0, -2.467e-1
1.463e+0, -2.453e-1
1.464e+0, -2.438e-1
1.465e+0, -2.423e-1
1.466e+0, -2.407e-1
1.467e+0, -2.391e-1
1.468e+0, -2.375e-1
1.469e+0, -2.361e-1
1.470e+0, -2.348e-1
1.471e+0, -2.337e-1
1.472e+0, -2.327e-1
1.473e+0, -2.317e-1
1.474e+0, -2.308e-1
1.475e+0, -2.301e-1
1.476e+0, -2.295e-1
1.477e+0, -2.288e-1
1.478e+0, -2.278e-1
1.479e+0, -2.270e-1
1.480e+0, -2.261e-1
1.481e+0, -2.254e-1
1.482e+0, -2.247e-1
1.483e+0, -2.242e-1
1.484e+0, -2.237e-1
1.485e+0, -2.231e-1
1.486e+0, -2.225e-1
1.487e+0, -2.218e-1
1.488e+0, -2.211e-1
1.489e+0, -2.204e-1
1.490e+0, -2.196e-1
1.491e+0, -2.189e-1
1.492e+0, -2.181e-1
1.493e+0, -2.173e-1
1.494e+0, -2.165e-1
1.495e+0, -2.157e-1
1.496e+0, -2.148e-1
1.497e+0, -2.140e-1
1.498e+0, -2.132e-1
1.499e+0, -2.124e-1
1.500e+0, -2.116e-1
1.501e+0, -2.108e-1
1.502e+0, -2.100e-1
1.503e+0, -2.091e-1
1.504e+0, -2.083e-1
1.505e+0, -2.075e-1
1.506e+0, -2.067e-1
1.507e+0, -2.059e-1
1.508e+0, -2.051e-1
1.509e+0, -2.043e-1
1.510e+0, -2.036e-1
1.511e+0, -2.028e-1
1.512e+0, -2.020e-1
1.513e+0, -2.013e-1
1.514e+0, -2.004e-1
1.515e+0, -1.997e-1
1.516e+0, -1.989e-1
1.517e+0, -1.981e-1
1.518e+0, -1.974e-1
1.519e+0, -1.966e-1
1.520e+0, -1.959e-1
1.521e+0, -1.952e-1
1.522e+0, -1.944e-1
1.523e+0, -1.936e-1
1.524e+0, -1.929e-1
1.525e+0, -1.922e-1
1.526e+0, -1.914e-1
1.527e+0, -1.906e-1
1.528e+0, -1.899e-1
1.529e+0, -1.892e-1
1.530e+0, -1.885e-1
1.531e+0, -1.878e-1
1.532e+0, -1.870e-1
1.533e+0, -1.863e-1
1.534e+0, -1.856e-1
1.535e+0, -1.849e-1
1.536e+0, -1.842e-1
1.537e+0, -1.835e-1
1.538e+0, -1.828e-1
1.539e+0, -1.821e-1
1.540e+0, -1.814e-1
1.541e+0, -1.807e-1
1.542e+0, -1.800e-1
1.543e+0, -1.793e-1
1.544e+0, -1.786e-1
1.545e+0, -1.779e-1
1.546e+0, -1.773e-1
1.547e+0, -1.766e-1
1.548e+0, -1.759e-1
1.549e+0, -1.753e-1
1.550e+0, -1.746e-1
1.551e+0, -1.739e-1
1.552e+0, -1.732e-1
1.553e+0, -1.726e-1
1.554e+0, -1.719e-1
1.555e+0, -1.713e-1
1.556e+0, -1.706e-1
1.557e+0, -1.699e-1
1.558e+0, -1.693e-1
1.559e+0, -1.687e-1
1.560e+0, -1.680e-1
1.561e+0, -1.674e-1
1.562e+0, -1.668e-1
1.563e+0, -1.661e-1
1.564e+0, -1.655e-1
1.565e+0, -1.648e-1
1.566e+0, -1.642e-1
1.567e+0, -1.636e-1
1.568e+0, -1.630e-1
1.569e+0, -1.624e-1
1.570e+0, -1.617e-1
1.571e+0, -1.611e-1
1.572e+0, -1.605e-1
1.573e+0, -1.599e-1
1.574e+0, -1.593e-1
1.575e+0, -1.586e-1
1.576e+0, -1.580e-1
1.577e+0, -1.574e-1
1.578e+0, -1.569e-1
1.579e+0, -1.562e-1
1.580e+0, -1.556e-1
1.581e+0, -1.551e-1
1.582e+0, -1.544e-1
1.583e+0, -1.539e-1
1.584e+0, -1.532e-1
1.585e+0, -1.526e-1
1.586e+0, -1.521e-1
1.587e+0, -1.514e-1
1.588e+0, -1.509e-1
1.589e+0, -1.503e-1
1.590e+0, -1.497e-1
1.591e+0, -1.491e-1
1.592e+0, -1.485e-1
1.593e+0, -1.480e-1
1.594e+0, -1.474e-1
1.595e+0, -1.468e-1
1.596e+0, -1.462e-1
1.597e+0, -1.456e-1
1.598e+0, -1.451e-1
1.599e+0, -1.445e-1
1.600e+0, -1.440e-1
1.601e+0, -1.434e-1
1.602e+0, -1.428e-1
1.603e+0, -1.422e-1
1.604e+0, -1.417e-1
1.605e+0, -1.412e-1
1.606e+0, -1.406e-1
1.607e+0, -1.400e-1
1.608e+0, -1.394e-1
1.609e+0, -1.389e-1
1.610e+0, -1.383e-1
1.611e+0, -1.378e-1
1.612e+0, -1.373e-1
1.613e+0, -1.367e-1
1.614e+0, -1.362e-1
1.615e+0, -1.356e-1
1.616e+0, -1.351e-1
1.617e+0, -1.345e-1
1.618e+0, -1.340e-1
1.619e+0, -1.335e-1
1.620e+0, -1.329e-1
1.621e+0, -1.324e-1
1.622e+0, -1.318e-1
1.623e+0, -1.313e-1
1.624e+0, -1.308e-1
1.625e+0, -1.302e-1
1.626e+0, -1.297e-1
1.627e+0, -1.292e-1
1.628e+0, -1.286e-1
1.629e+0, -1.281e-1
1.630e+0, -1.276e-1
1.631e+0, -1.271e-1
1.632e+0, -1.265e-1
1.633e+0, -1.261e-1
1.634e+0, -1.255e-1
1.635e+0, -1.250e-1
1.636e+0, -1.245e-1
1.637e+0, -1.239e-1
1.638e+0, -1.235e-1
1.639e+0, -1.230e-1
1.640e+0, -1.225e-1
1.641e+0, -1.219e-1
1.642e+0, -1.214e-1
1.643e+0, -1.210e-1
1.644e+0, -1.204e-1
1.645e+0, -1.199e-1
1.646e+0, -1.194e-1
1.647e+0, -1.189e-1
1.648e+0, -1.184e-1
1.649e+0, -1.179e-1
1.650e+0, -1.174e-1
1.651e+0, -1.169e-1
1.652e+0, -1.164e-1
1.653e+0, -1.159e-1
1.654e+0, -1.154e-1
1.655e+0, -1.149e-1
1.656e+0, -1.144e-1
1.657e+0, -1.139e-1
1.658e+0, -1.134e-1
1.659e+0, -1.129e-1
1.660e+0, -1.124e-1
1.661e+0, -1.119e-1
1.662e+0, -1.115e-1
1.663e+0, -1.110e-1
1.664e+0, -1.105e-1
1.665e+0, -1.100e-1
1.666e+0, -1.095e-1
1.667e+0, -1.090e-1
1.668e+0, -1.086e-1
1.669e+0, -1.081e-1
1.670e+0, -1.076e-1
1.671e+0, -1.071e-1
1.672e+0, -1.066e-1
1.673e+0, -1.062e-1
1.674e+0, -1.057e-1
1.675e+0, -1.052e-1
1.676e+0, -1.047e-1
1.677e+0, -1.043e-1
1.678e+0, -1.038e-1
1.679e+0, -1.033e-1
1.680e+0, -1.028e-1
1.681e+0, -1.024e-1
1.682e+0, -1.018e-1
1.683e+0, -1.014e-1
1.684e+0, -1.009e-1
1.685e+0, -1.005e-1
1.686e+0, -9.997e-2
1.687e+0, -9.952e-2
1.688e+0, -9.904e-2
1.689e+0, -9.857e-2
1.690e+0, -9.815e-2
1.691e+0, -9.767e-2
1.692e+0, -9.721e-2
1.693e+0, -9.673e-2
1.694e+0, -9.628e-2
1.695e+0, -9.585e-2
1.696e+0, -9.536e-2
1.697e+0, -9.493e-2
1.698e+0, -9.443e-2
1.699e+0, -9.397e-2
1.700e+0, -9.354e-2
1.701e+0, -9.306e-2
1.702e+0, -9.261e-2
1.703e+0, -9.216e-2
1.704e+0, -9.171e-2
1.705e+0, -9.126e-2
1.706e+0, -9.080e-2
1.707e+0, -9.035e-2
1.708e+0, -8.988e-2
1.709e+0, -8.948e-2
1.710e+0, -8.903e-2
1.711e+0, -8.860e-2
1.712e+0, -8.812e-2
1.713e+0, -8.767e-2
1.714e+0, -8.723e-2
1.715e+0, -8.677e-2
1.716e+0, -8.634e-2
1.717e+0, -8.588e-2
1.718e+0, -8.544e-2
1.719e+0, -8.501e-2
1.720e+0, -8.458e-2
1.721e+0, -8.419e-2
1.722e+0, -8.369e-2
1.723e+0, -8.331e-2
1.724e+0, -8.282e-2
1.725e+0, -8.239e-2
1.726e+0, -8.196e-2
1.727e+0, -8.151e-2
1.728e+0, -8.111e-2
1.729e+0, -8.064e-2
1.730e+0, -8.023e-2
1.731e+0, -7.979e-2
1.732e+0, -7.935e-2
1.733e+0, -7.892e-2
1.734e+0, -7.852e-2
1.735e+0, -7.808e-2
1.736e+0, -7.760e-2
1.737e+0, -7.716e-2
1.738e+0, -7.675e-2
1.739e+0, -7.632e-2
1.740e+0, -7.593e-2
1.741e+0, -7.544e-2
1.742e+0, -7.508e-2
1.743e+0, -7.461e-2
1.744e+0, -7.417e-2
1.745e+0, -7.374e-2
1.746e+0, -7.329e-2
1.747e+0, -7.291e-2
1.748e+0, -7.245e-2
1.749e+0, -7.207e-2
1.750e+0, -7.161e-2
1.751e+0, -7.118e-2
1.752e+0, -7.077e-2
1.753e+0, -7.033e-2
1.754e+0, -6.994e-2
1.755e+0, -6.951e-2
1.756e+0, -6.911e-2
1.757e+0, -6.868e-2
1.758e+0, -6.825e-2
1.759e+0, -6.784e-2
1.760e+0, -6.744e-2
1.761e+0, -6.702e-2
1.762e+0, -6.658e-2
1.763e+0, -6.616e-2
1.764e+0, -6.573e-2
1.765e+0, -6.531e-2
1.766e+0, -6.493e-2
1.767e+0, -6.451e-2
1.768e+0, -6.411e-2
1.769e+0, -6.366e-2
1.770e+0, -6.326e-2
1.771e+0, -6.284e-2
1.772e+0, -6.243e-2
1.773e+0, -6.206e-2
1.774e+0, -6.159e-2
1.775e+0, -6.119e-2
1.776e+0, -6.079e-2
1.777e+0, -6.034e-2
1.778e+0, -5.997e-2
1.779e+0, -5.957e-2
1.780e+0, -5.918e-2
1.781e+0, -5.877e-2
1.782e+0, -5.835e-2
1.783e+0, -5.792e-2
1.784e+0, -5.752e-2
1.785e+0, -5.713e-2
1.786e+0, -5.671e-2
1.787e+0, -5.634e-2
1.788e+0, -5.591e-2
1.789e+0, -5.550e-2
1.790e+0, -5.513e-2
1.791e+0, -5.469e-2
1.792e+0, -5.430e-2
1.793e+0, -5.387e-2
1.794e+0, -5.347e-2
1.795e+0, -5.308e-2
1.796e+0, -5.266e-2
1.797e+0, -5.226e-2
1.798e+0, -5.183e-2
1.799e+0, -5.149e-2
1.800e+0, -5.107e-2
1.801e+0, -5.068e-2
1.802e+0, -5.027e-2
1.803e+0, -4.986e-2
1.804e+0, -4.951e-2
1.805e+0, -4.909e-2
1.806e+0, -4.873e-2
1.807e+0, -4.828e-2
1.808e+0, -4.790e-2
1.809e+0, -4.752e-2
1.810e+0, -4.711e-2
1.811e+0, -4.673e-2
1.812e+0, -4.632e-2
1.813e+0, -4.592e-2
1.814e+0, -4.553e-2
1.815e+0, -4.513e-2
1.816e+0, -4.474e-2
1.817e+0, -4.438e-2
1.818e+0, -4.400e-2
1.819e+0, -4.361e-2
1.820e+0, -4.320e-2
1.821e+0, -4.279e-2
1.822e+0, -4.239e-2
1.823e+0, -4.207e-2
1.824e+0, -4.165e-2
1.825e+0, -4.127e-2
1.826e+0, -4.086e-2
1.827e+0, -4.044e-2
1.828e+0, -4.010e-2
1.829e+0, -3.971e-2
1.830e+0, -3.936e-2
1.831e+0, -3.893e-2
1.832e+0, -3.858e-2
1.833e+0, -3.815e-2
1.834e+0, -3.777e-2
1.835e+0, -3.739e-2
1.836e+0, -3.700e-2
1.837e+0, -3.665e-2
1.838e+0, -3.624e-2
1.839e+0, -3.589e-2
1.840e+0, -3.545e-2
1.841e+0, -3.506e-2
1.842e+0, -3.473e-2
1.843e+0, -3.428e-2
1.844e+0, -3.395e-2
1.845e+0, -3.351e-2
1.846e+0, -3.314e-2
1.847e+0, -3.276e-2
1.848e+0, -3.236e-2
1.849e+0, -3.201e-2
1.850e+0, -3.161e-2
1.851e+0, -3.127e-2
1.852e+0, -3.088e-2
1.853e+0, -3.051e-2
1.854e+0, -3.011e-2
1.855e+0, -2.974e-2
1.856e+0, -2.938e-2
1.857e+0, -2.900e-2
1.858e+0, -2.863e-2
1.859e+0, -2.823e-2
1.860e+0, -2.786e-2
1.861e+0, -2.752e-2
1.862e+0, -2.711e-2
1.863e+0, -2.676e-2
1.864e+0, -2.633e-2
1.865e+0, -2.595e-2
1.866e+0, -2.560e-2
1.867e+0, -2.522e-2
1.868e+0, -2.485e-2
1.869e+0, -2.446e-2
1.870e+0, -2.410e-2
1.871e+0, -2.369e-2
1.872e+0, -2.333e-2
1.873e+0, -2.297e-2
1.874e+0, -2.258e-2
1.875e+0, -2.224e-2
1.876e+0, -2.183e-2
1.877e+0, -2.151e-2
1.878e+0, -2.108e-2
1.879e+0, -2.073e-2
1.880e+0, -2.036e-2
1.881e+0, -2.000e-2
1.882e+0, -1.965e-2
1.883e+0, -1.925e-2
1.884e+0, -1.888e-2
1.885e+0, -1.853e-2
1.886e+0, -1.816e-2
1.887e+0, -1.778e-2
1.888e+0, -1.741e-2
1.889e+0, -1.707e-2
1.890e+0, -1.669e-2
1.891e+0, -1.633e-2
1.892e+0, -1.595e-2
1.893e+0, -1.556e-2
1.894e+0, -1.522e-2
1.895e+0, -1.480e-2
1.896e+0, -1.448e-2
1.897e+0, -1.408e-2
1.898e+0, -1.372e-2
1.899e+0, -1.336e-2
1.900e+0, -1.300e-2
1.901e+0, -1.268e-2
1.902e+0, -1.227e-2
1.903e+0, -1.194e-2
1.904e+0, -1.154e-2
1.905e+0, -1.117e-2
1.906e+0, -1.084e-2
1.907e+0, -1.044e-2
1.908e+0, -1.013e-2
1.909e+0, -9.710e-3
1.910e+0, -9.354e-3
1.911e+0, -8.970e-3
1.912e+0, -8.641e-3
1.913e+0, -8.337e-3
1.914e+0, -7.931e-3
1.915e+0, -7.602e-3
1.916e+0, -7.198e-3
1.917e+0, -6.824e-3
1.918e+0, -6.481e-3
1.919e+0, -6.139e-3
1.920e+0, -5.812e-3
1.921e+0, -5.434e-3
1.922e+0, -5.087e-3
1.923e+0, -4.731e-3
1.924e+0, -4.359e-3
1.925e+0, -3.964e-3
1.926e+0, -3.638e-3
1.927e+0, -3.299e-3
1.928e+0, -2.913e-3
1.929e+0, -2.565e-3
1.930e+0, -2.186e-3
1.931e+0, -1.835e-3
1.932e+0, -1.527e-3
1.933e+0, -1.145e-3
1.934e+0, -8.181e-4
1.935e+0, -4.295e-4
1.936e+0, -5.436e-5
1.937e+0, -3.885e-1
1.938e+0, -4.127e-1
1.939e+0, -4.330e-1
1.940e+0, -4.488e-1
1.941e+0, -4.618e-1
1.942e+0, -4.730e-1
1.943e+0, -4.826e-1
1.944e+0, -4.912e-1
1.945e+0, -4.991e-1
1.946e+0, -5.061e-1
1.947e+0, -5.126e-1
1.948e+0, -5.187e-1
1.949e+0, -5.246e-1
1.950e+0, -5.301e-1
1.951e+0, -5.354e-1
1.952e+0, -5.404e-1
1.953e+0, -5.451e-1
1.954e+0, -5.495e-1
1.955e+0, -5.538e-1
1.956e+0, -5.579e-1
1.957e+0, -5.618e-1
1.958e+0, -5.656e-1
1.959e+0, -5.692e-1
1.960e+0, -5.725e-1
1.961e+0, -5.759e-1
1.962e+0, -5.792e-1
1.963e+0, -5.825e-1
1.964e+0, -5.858e-1
1.965e+0, -5.890e-1
1.966e+0, -5.923e-1
1.967e+0, -5.954e-1
1.968e+0, -5.986e-1
1.969e+0, -6.018e-1
1.970e+0, -6.049e-1
1.971e+0, -6.078e-1
1.972e+0, -6.105e-1
1.973e+0, -6.129e-1
1.974e+0, -6.151e-1
1.975e+0, -6.171e-1
1.976e+0, -6.191e-1
1.977e+0, -6.211e-1
1.978e+0, -6.231e-1
1.979e+0, -6.251e-1
1.980e+0, -6.271e-1
1.981e+0, -6.291e-1
1.982e+0, -6.312e-1
1.983e+0, -6.333e-1
1.984e+0, -6.355e-1
1.985e+0, -6.379e-1
1.986e+0, -6.405e-1
1.987e+0, -6.435e-1
1.988e+0, -6.465e-1
1.989e+0, -6.488e-1
1.990e+0, -6.508e-1
1.991e+0, -6.531e-1
1.992e+0, -6.555e-1
1.993e+0, -6.576e-1
1.994e+0, -6.592e-1
1.995e+0, -6.600e-1
1.996e+0, -6.606e-1
1.997e+0, -6.616e-1
1.998e+0, -6.630e-1
1.999e+0, -6.648e-1
2.000e+0, -6.669e-1
2.001e+0, -6.691e-1
2.002e+0, -6.712e-1
2.003e+0, -6.728e-1
2.004e+0, -6.742e-1
2.005e+0, -6.755e-1
2.006e+0, -6.769e-1
2.007e+0, -6.783e-1
2.008e+0, -6.798e-1
2.009e+0, -6.812e-1
2.010e+0, -6.826e-1
2.011e+0, -6.839e-1
2.012e+0, -6.853e-1
2.013e+0, -6.867e-1
2.014e+0, -6.881e-1
2.015e+0, -6.895e-1
2.016e+0, -6.910e-1
2.017e+0, -6.924e-1
2.018e+0, -6.938e-1
2.019e+0, -6.953e-1
2.020e+0, -6.967e-1
2.021e+0, -6.981e-1
2.022e+0, -6.994e-1
2.023e+0, -7.008e-1
2.024e+0, -7.021e-1
2.025e+0, -7.035e-1
2.026e+0, -7.048e-1
2.027e+0, -7.060e-1
2.028e+0, -7.073e-1
2.029e+0, -7.086e-1
2.030e+0, -7.098e-1
2.031e+0, -7.110e-1
2.032e+0, -7.122e-1
2.033e+0, -7.134e-1
2.034e+0, -7.146e-1
2.035e+0, -7.158e-1
2.036e+0, -7.169e-1
2.037e+0, -7.181e-1
2.038e+0, -7.191e-1
2.039e+0, -7.202e-1
2.040e+0, -7.213e-1
2.041e+0, -7.222e-1
2.042e+0, -7.232e-1
2.043e+0, -7.241e-1
2.044e+0, -7.249e-1
2.045e+0, -7.257e-1
2.046e+0, -7.265e-1
2.047e+0, -7.274e-1
2.048e+0, -7.282e-1
2.049e+0, -7.290e-1
2.050e+0, -7.299e-1
2.051e+0, -7.307e-1
2.052e+0, -7.316e-1
2.053e+0, -7.325e-1
2.054e+0, -7.335e-1
2.055e+0, -7.343e-1
2.056e+0, -7.353e-1
2.057e+0, -7.362e-1
2.058e+0, -7.371e-1
2.059e+0, -7.381e-1
2.060e+0, -7.390e-1
2.061e+0, -7.399e-1
2.062e+0, -7.408e-1
2.063e+0, -7.418e-1
2.064e+0, -7.427e-1
2.065e+0, -7.436e-1
2.066e+0, -7.445e-1
2.067e+0, -7.454e-1
2.068e+0, -7.464e-1
2.069e+0, -7.473e-1
2.070e+0, -7.482e-1
2.071e+0, -7.491e-1
2.072e+0, -7.500e-1
2.073e+0, -7.509e-1
2.074e+0, -7.518e-1
2.075e+0, -7.527e-1
2.076e+0, -7.536e-1
2.077e+0, -7.545e-1
2.078e+0, -7.554e-1
2.079e+0, -7.562e-1
2.080e+0, -7.571e-1
2.081e+0, -7.580e-1
2.082e+0, -7.589e-1
2.083e+0, -7.597e-1
2.084e+0, -7.606e-1
2.085e+0, -7.615e-1
2.086e+0, -7.623e-1
2.087e+0, -7.632e-1
2.088e+0, -7.640e-1
2.089e+0, -7.649e-1
2.090e+0, -7.657e-1
2.091e+0, -7.665e-1
2.092e+0, -7.674e-1
2.093e+0, -7.682e-1
2.094e+0, -7.691e-1
2.095e+0, -7.699e-1
2.096e+0, -7.707e-1
2.097e+0, -7.716e-1
2.098e+0, -7.724e-1
2.099e+0, -7.732e-1
2.100e+0, -7.740e-1
2.101e+0, -7.748e-1
2.102e+0, -7.756e-1
2.103e+0, -7.764e-1
2.104e+0, -7.772e-1
2.105e+0, -7.780e-1
2.106e+0, -7.789e-1
2.107e+0, -7.796e-1
2.108e+0, -7.804e-1
2.109e+0, -7.812e-1
2.110e+0, -7.820e-1
2.111e+0, -7.828e-1
2.112e+0, -7.836e-1
2.113e+0, -7.844e-1
2.114e+0, -7.851e-1
2.115e+0, -7.858e-1
2.116e+0, -7.866e-1
2.117e+0, -7.874e-1
2.118e+0, -7.882e-1
2.119e+0, -7.889e-1
2.120e+0, -7.897e-1
2.121e+0, -7.904e-1
2.122e+0, -7.911e-1
2.123e+0, -7.919e-1
2.124e+0, -7.926e-1
2.125e+0, -7.934e-1
2.126e+0, -7.941e-1
2.127e+0, -7.949e-1
2.128e+0, -7.956e-1
2.129e+0, -7.963e-1
2.130e+0, -7.971e-1
2.131e+0, -7.978e-1
2.132e+0, -7.986e-1
2.133e+0, -7.993e-1
2.134e+0, -8.000e-1
2.135e+0, -8.007e-1
2.136e+0, -8.015e-1
2.137e+0, -8.022e-1
2.138e+0, -8.029e-1
2.139e+0, -8.036e-1
2.140e+0, -8.043e-1
2.141e+0, -8.050e-1
2.142e+0, -8.057e-1
2.143e+0, -8.064e-1
2.144e+0, -8.072e-1
2.145e+0, -8.078e-1
2.146e+0, -8.086e-1
2.147e+0, -8.092e-1
2.148e+0, -8.099e-1
2.149e+0, -8.107e-1
2.150e+0, -8.113e-1
2.151e+0, -8.121e-1
2.152e+0, -8.127e-1
2.153e+0, -8.134e-1
2.154e+0, -8.141e-1
2.155e+0, -8.148e-1
2.156e+0, -8.154e-1
2.157e+0, -8.161e-1
2.158e+0, -8.168e-1
2.159e+0, -8.175e-1
2.160e+0, -8.181e-1
2.161e+0, -8.188e-1
2.162e+0, -8.195e-1
2.163e+0, -8.202e-1
2.164e+0, -8.208e-1
2.165e+0, -8.215e-1
2.166e+0, -8.221e-1
2.167e+0, -8.228e-1
2.168e+0, -8.235e-1
2.169e+0, -8.242e-1
2.170e+0, -8.248e-1
2.171e+0, -8.254e-1
2.172e+0, -8.261e-1
2.173e+0, -8.267e-1
2.174e+0, -8.274e-1
2.175e+0, -8.281e-1
2.176e+0, -8.287e-1
2.177e+0, -8.294e-1
2.178e+0, -8.300e-1
2.179e+0, -8.306e-1
2.180e+0, -8.313e-1
2.181e+0, -8.319e-1
2.182e+0, -8.326e-1
2.183e+0, -8.332e-1
2.184e+0, -8.338e-1
2.185e+0, -8.344e-1
2.186e+0, -8.351e-1
2.187e+0, -8.357e-1
2.188e+0, -8.363e-1
2.189e+0, -8.370e-1
2.190e+0, -8.376e-1
2.191e+0, -8.382e-1
2.192e+0, -8.389e-1
2.193e+0, -8.395e-1
2.194e+0, -8.402e-1
2.195e+0, -8.408e-1
2.196e+0, -8.414e-1
2.197e+0, -8.420e-1
2.198e+0, -8.426e-1
2.199e+0, -8.432e-1
2.200e+0, -8.439e-1
2.201e+0, -8.445e-1
2.202e+0, -8.451e-1
2.203e+0, -8.457e-1
2.204e+0, -8.463e-1
2.205e+0, -8.469e-1
2.206e+0, -8.476e-1
2.207e+0, -8.482e-1
2.208e+0, -8.488e-1
2.209e+0, -8.494e-1
2.210e+0, -8.500e-1
2.211e+0, -8.506e-1
2.212e+0, -8.512e-1
2.213e+0, -8.518e-1
2.214e+0, -8.524e-1
2.215e+0, -8.530e-1
2.216e+0, -8.536e-1
2.217e+0, -8.542e-1
2.218e+0, -8.548e-1
2.219e+0, -8.554e-1
2.220e+0, -8.560e-1
2.221e+0, -8.566e-1
2.222e+0, -8.572e-1
2.223e+0, -8.577e-1
2.224e+0, -8.583e-1
2.225e+0, -8.589e-1
2.226e+0, -8.595e-1
2.227e+0, -8.601e-1
2.228e+0, -8.607e-1
2.229e+0, -8.613e-1
2.230e+0, -8.619e-1
2.231e+0, -8.625e-1
2.232e+0, -8.630e-1
2.233e+0, -8.636e-1
2.234e+0, -8.642e-1
2.235e+0, -8.648e-1
2.236e+0, -8.654e-1
2.237e+0, -8.659e-1
2.238e+0, -8.665e-1
2.239e+0, -8.671e-1
2.240e+0, -8.677e-1
2.241e+0, -8.683e-1
2.242e+0, -8.688e-1
2.243e+0, -8.694e-1
2.244e+0, -8.699e-1
2.245e+0, -8.705e-1
2.246e+0, -8.711e-1
2.247e+0, -8.717e-1
2.248e+0, -8.722e-1
2.249e+0, -8.728e-1
2.250e+0, -8.734e-1
2.251e+0, -8.739e-1
2.252e+0, -8.745e-1
2.253e+0, -8.751e-1
2.254e+0, -8.756e-1
2.255e+0, -8.762e-1
2.256e+0, -8.767e-1
2.257e+0, -8.773e-1
2.258e+0, -8.779e-1
2.259e+0, -8.784e-1
2.260e+0, -8.790e-1
2.261e+0, -8.796e-1
2.262e+0, -8.801e-1
2.263e+0, -8.807e-1
2.264e+0, -8.813e-1
2.265e+0, -8.818e-1
2.266e+0, -8.824e-1
2.267e+0, -8.829e-1
2.268e+0, -8.834e-1
2.269e+0, -8.840e-1
2.270e+0, -8.846e-1
2.271e+0, -8.851e-1
2.272e+0, -8.857e-1
2.273e+0, -8.862e-1
2.274e+0, -8.868e-1
2.275e+0, -8.873e-1
2.276e+0, -8.879e-1
2.277e+0, -8.885e-1
2.278e+0, -8.890e-1
2.279e+0, -8.896e-1
2.280e+0, -8.901e-1
2.281e+0, -8.906e-1
2.282e+0, -8.911e-1
2.283e+0, -8.917e-1
2.284e+0, -8.923e-1
2.285e+0, -8.927e-1
2.286e+0, -8.933e-1
2.287e+0, -8.939e-1
2.288e+0, -8.944e-1
2.289e+0, -8.949e-1
2.290e+0, -8.955e-1
2.291e+0, -8.960e-1
2.292e+0, -8.966e-1
2.293e+0, -8.971e-1
2.294e+0, -8.976e-1
2.295e+0, -8.982e-1
2.296e+0, -8.987e-1
2.297e+0, -8.993e-1
2.298e+0, -8.998e-1
2.299e+0, -9.003e-1
2.300e+0, -9.009e-1
2.301e+0, -9.014e-1
2.302e+0, -9.019e-1
2.303e+0, -9.025e-1
2.304e+0, -9.030e-1
2.305e+0, -9.035e-1
2.306e+0, -9.040e-1
2.307e+0, -9.045e-1
2.308e+0, -9.051e-1
2.309e+0, -9.056e-1
2.310e+0, -9.062e-1
2.311e+0, -9.067e-1
2.312e+0, -9.072e-1
2.313e+0, -9.077e-1
2.314e+0, -9.082e-1
2.315e+0, -9.088e-1
2.316e+0, -9.093e-1
2.317e+0, -9.098e-1
2.318e+0, -9.103e-1
2.319e+0, -9.108e-1
2.320e+0, -9.114e-1
2.321e+0, -9.119e-1
2.322e+0, -9.124e-1
2.323e+0, -9.129e-1
2.324e+0, -9.134e-1
2.325e+0, -9.140e-1
2.326e+0, -9.145e-1
2.327e+0, -9.150e-1
2.328e+0, -9.155e-1
2.329e+0, -9.161e-1
2.330e+0, -9.166e-1
2.331e+0, -9.171e-1
2.332e+0, -9.176e-1
2.333e+0, -9.181e-1
2.334e+0, -9.187e-1
2.335e+0, -9.191e-1
2.336e+0, -9.197e-1
2.337e+0, -9.202e-1
2.338e+0, -9.207e-1
2.339e+0, -9.212e-1
2.340e+0, -9.217e-1
2.341e+0, -9.222e-1
2.342e+0, -9.227e-1
2.343e+0, -9.233e-1
2.344e+0, -9.238e-1
2.345e+0, -9.243e-1
2.346e+0, -9.248e-1
2.347e+0, -9.253e-1
2.348e+0, -9.258e-1
2.349e+0, -9.263e-1
2.350e+0, -9.268e-1
2.351e+0, -9.273e-1
2.352e+0, -9.279e-1
2.353e+0, -9.284e-1
2.354e+0, -9.288e-1
2.355e+0, -9.294e-1
2.356e+0, -9.299e-1
2.357e+0, -9.304e-1
2.358e+0, -9.309e-1
2.359e+0, -9.314e-1
2.360e+0, -9.319e-1
2.361e+0, -9.324e-1
2.362e+0, -9.329e-1
2.363e+0, -9.334e-1
2.364e+0, -9.339e-1
2.365e+0, -9.344e-1
2.366e+0, -9.349e-1
2.367e+0, -9.355e-1
2.368e+0, -9.359e-1
2.369e+0, -9.365e-1
2.370e+0, -9.370e-1
2.371e+0, -9.375e-1
2.372e+0, -9.380e-1
2.373e+0, -9.384e-1
2.374e+0, -9.389e-1
2.375e+0, -9.394e-1
2.376e+0, -9.399e-1
2.377e+0, -9.404e-1
2.378e+0, -9.409e-1
2.379e+0, -9.414e-1
2.380e+0, -9.419e-1
2.381e+0, -9.424e-1
2.382e+0, -9.429e-1
2.383e+0, -9.434e-1
2.384e+0, -9.439e-1
2.385e+0, -9.444e-1
2.386e+0, -9.449e-1
2.387e+0, -9.454e-1
2.388e+0, -9.459e-1
2.389e+0, -9.464e-1
2.390e+0, -9.469e-1
2.391e+0, -9.474e-1
2.392e+0, -9.478e-1
2.393e+0, -9.484e-1
2.394e+0, -9.488e-1
2.395e+0, -9.493e-1
2.396e+0, -9.498e-1
2.397e+0, -9.503e-1
2.398e+0, -9.508e-1
2.399e+0, -9.513e-1
2.400e+0, -9.518e-1
2.401e+0, -9.522e-1
2.402e+0, -9.527e-1
2.403e+0, -9.532e-1
2.404e+0, -9.537e-1
2.405e+0, -9.542e-1
2.406e+0, -9.547e-1
2.407e+0, -9.552e-1
2.408e+0, -9.557e-1
2.409e+0, -9.562e-1
2.410e+0, -9.567e-1
2.411e+0, -9.572e-1
2.412e+0, -9.577e-1
2.413e+0, -9.581e-1
2.414e+0, -9.587e-1
2.415e+0, -9.591e-1
2.416e+0, -9.596e-1
2.417e+0, -9.601e-1
2.418e+0, -9.606e-1
2.419e+0, -9.611e-1
2.420e+0, -9.615e-1
2.421e+0, -9.620e-1
2.422e+0, -9.625e-1
2.423e+0, -9.630e-1
2.424e+0, -9.635e-1
2.425e+0, -9.639e-1
2.426e+0, -9.644e-1
2.427e+0, -9.649e-1
2.428e+0, -9.654e-1
2.429e+0, -9.659e-1
2.430e+0, -9.664e-1
2.431e+0, -9.669e-1
2.432e+0, -9.673e-1
2.433e+0, -9.678e-1
2.434e+0, -9.683e-1
2.435e+0, -9.688e-1
2.436e+0, -9.692e-1
2.437e+0, -9.697e-1
2.438e+0, -9.702e-1
2.439e+0, -9.707e-1
2.440e+0, -9.712e-1
2.441e+0, -9.716e-1
2.442e+0, -9.721e-1
2.443e+0, -9.726e-1
2.444e+0, -9.731e-1
2.445e+0, -9.736e-1
2.446e+0, -9.740e-1
2.447e+0, -9.745e-1
2.448e+0, -9.750e-1
2.449e+0, -9.755e-1
2.450e+0, -9.760e-1
2.451e+0, -9.764e-1
2.452e+0, -9.769e-1
2.453e+0, -9.774e-1
2.454e+0, -9.778e-1
2.455e+0, -9.783e-1
2.456e+0, -9.788e-1
2.457e+0, -9.793e-1
2.458e+0, -9.797e-1
2.459e+0, -9.803e-1
2.460e+0, -9.807e-1
2.461e+0, -9.811e-1
2.462e+0, -9.817e-1
2.463e+0, -9.821e-1
2.464e+0, -9.826e-1
2.465e+0, -9.831e-1
2.466e+0, -9.835e-1
2.467e+0, -9.840e-1
2.468e+0, -9.844e-1
2.469e+0, -9.849e-1
2.470e+0, -9.854e-1
2.471e+0, -9.859e-1
2.472e+0, -9.864e-1
2.473e+0, -9.868e-1
2.474e+0, -9.873e-1
2.475e+0, -9.877e-1
2.476e+0, -9.882e-1
2.477e+0, -9.887e-1
2.478e+0, -9.892e-1
2.479e+0, -9.896e-1
2.480e+0, -9.901e-1
2.481e+0, -9.905e-1
2.482e+0, -9.910e-1
2.483e+0, -9.915e-1
2.484e+0, -9.919e-1
2.485e+0, -9.924e-1
2.486e+0, -9.929e-1
2.487e+0, -9.933e-1
2.488e+0, -9.938e-1
2.489e+0, -9.943e-1
2.490e+0, -9.948e-1
2.491e+0, -9.952e-1
2.492e+0, -9.957e-1
2.493e+0, -9.962e-1
2.494e+0, -9.966e-1
2.495e+0, -9.971e-1
2.496e+0, -9.976e-1
2.497e+0, -9.981e-1
2.498e+0, -9.985e-1
2.499e+0, -9.989e-1
2.500e+0, -9.994e-1
2.501e+0, -9.999e-1
