Apr. 13, 2018   16:56:09
Chronopotentiometry
File: c:\users\lingd\google drive\Data Source:  Experiment
Instrument Model:  CHI660E
Header: 
Note: 

Cathodic Current (A) = 0.0444
Anodic Current (A) = 0.0444
Init P/N = N
Data Storage Interval (s) = 0.001
High E Limit (V) = 0
Low E Limit (V) = -1
Cathodic Time (s) = 10
Anodic Time (s) = 10
Current Switching Polarity = Potential
Segment = 5

Time/sec, Potential/V

1.000e-3, -8.455e-1
2.000e-3, -8.602e-1
3.000e-3, -8.673e-1
4.000e-3, -8.724e-1
5.000e-3, -8.767e-1
6.000e-3, -8.814e-1
7.000e-3, -8.864e-1
8.000e-3, -8.914e-1
9.000e-3, -8.962e-1
1.000e-2, -9.008e-1
1.100e-2, -9.052e-1
1.200e-2, -9.093e-1
1.300e-2, -9.132e-1
1.400e-2, -9.169e-1
1.500e-2, -9.205e-1
1.600e-2, -9.239e-1
1.700e-2, -9.272e-1
1.800e-2, -9.303e-1
1.900e-2, -9.333e-1
2.000e-2, -9.361e-1
2.100e-2, -9.389e-1
2.200e-2, -9.415e-1
2.300e-2, -9.441e-1
2.400e-2, -9.465e-1
2.500e-2, -9.489e-1
2.600e-2, -9.512e-1
2.700e-2, -9.535e-1
2.800e-2, -9.556e-1
2.900e-2, -9.577e-1
3.000e-2, -9.598e-1
3.100e-2, -9.617e-1
3.200e-2, -9.637e-1
3.300e-2, -9.655e-1
3.400e-2, -9.673e-1
3.500e-2, -9.691e-1
3.600e-2, -9.708e-1
3.700e-2, -9.725e-1
3.800e-2, -9.741e-1
3.900e-2, -9.757e-1
4.000e-2, -9.773e-1
4.100e-2, -9.788e-1
4.200e-2, -9.803e-1
4.300e-2, -9.817e-1
4.400e-2, -9.832e-1
4.500e-2, -9.846e-1
4.600e-2, -9.859e-1
4.700e-2, -9.872e-1
4.800e-2, -9.885e-1
4.900e-2, -9.898e-1
5.000e-2, -9.910e-1
5.100e-2, -9.923e-1
5.200e-2, -9.934e-1
5.300e-2, -9.946e-1
5.400e-2, -9.958e-1
5.500e-2, -9.969e-1
5.600e-2, -9.981e-1
5.700e-2, -9.992e-1
5.800e-2, -8.298e-1
5.900e-2, -8.025e-1
6.000e-2, -7.818e-1
6.100e-2, -7.646e-1
6.200e-2, -7.501e-1
6.300e-2, -7.378e-1
6.400e-2, -7.265e-1
6.500e-2, -7.153e-1
6.600e-2, -7.054e-1
6.700e-2, -6.964e-1
6.800e-2, -6.880e-1
6.900e-2, -6.799e-1
7.000e-2, -6.719e-1
7.100e-2, -6.644e-1
7.200e-2, -6.573e-1
7.300e-2, -6.506e-1
7.400e-2, -6.443e-1
7.500e-2, -6.381e-1
7.600e-2, -6.325e-1
7.700e-2, -6.270e-1
7.800e-2, -6.218e-1
7.900e-2, -6.167e-1
8.000e-2, -6.118e-1
8.100e-2, -6.071e-1
8.200e-2, -6.024e-1
8.300e-2, -5.979e-1
8.400e-2, -5.936e-1
8.500e-2, -5.894e-1
8.600e-2, -5.853e-1
8.700e-2, -5.813e-1
8.800e-2, -5.775e-1
8.900e-2, -5.738e-1
9.000e-2, -5.702e-1
9.100e-2, -5.667e-1
9.200e-2, -5.632e-1
9.300e-2, -5.598e-1
9.400e-2, -5.566e-1
9.500e-2, -5.535e-1
9.600e-2, -5.504e-1
9.700e-2, -5.474e-1
9.800e-2, -5.445e-1
9.900e-2, -5.415e-1
1.000e-1, -5.388e-1
1.010e-1, -5.360e-1
1.020e-1, -5.333e-1
1.030e-1, -5.307e-1
1.040e-1, -5.281e-1
1.050e-1, -5.256e-1
1.060e-1, -5.231e-1
1.070e-1, -5.207e-1
1.080e-1, -5.183e-1
1.090e-1, -5.160e-1
1.100e-1, -5.137e-1
1.110e-1, -5.115e-1
1.120e-1, -5.093e-1
1.130e-1, -5.071e-1
1.140e-1, -5.050e-1
1.150e-1, -5.028e-1
1.160e-1, -5.008e-1
1.170e-1, -4.987e-1
1.180e-1, -4.967e-1
1.190e-1, -4.948e-1
1.200e-1, -4.928e-1
1.210e-1, -4.910e-1
1.220e-1, -4.891e-1
1.230e-1, -4.872e-1
1.240e-1, -4.854e-1
1.250e-1, -4.836e-1
1.260e-1, -4.818e-1
1.270e-1, -4.801e-1
1.280e-1, -4.784e-1
1.290e-1, -4.767e-1
1.300e-1, -4.751e-1
1.310e-1, -4.734e-1
1.320e-1, -4.717e-1
1.330e-1, -4.702e-1
1.340e-1, -4.686e-1
1.350e-1, -4.670e-1
1.360e-1, -4.654e-1
1.370e-1, -4.639e-1
1.380e-1, -4.624e-1
1.390e-1, -4.609e-1
1.400e-1, -4.595e-1
1.410e-1, -4.580e-1
1.420e-1, -4.566e-1
1.430e-1, -4.551e-1
1.440e-1, -4.537e-1
1.450e-1, -4.523e-1
1.460e-1, -4.509e-1
1.470e-1, -4.496e-1
1.480e-1, -4.483e-1
1.490e-1, -4.469e-1
1.500e-1, -4.456e-1
1.510e-1, -4.443e-1
1.520e-1, -4.430e-1
1.530e-1, -4.417e-1
1.540e-1, -4.405e-1
1.550e-1, -4.392e-1
1.560e-1, -4.380e-1
1.570e-1, -4.367e-1
1.580e-1, -4.355e-1
1.590e-1, -4.344e-1
1.600e-1, -4.331e-1
1.610e-1, -4.320e-1
1.620e-1, -4.308e-1
1.630e-1, -4.297e-1
1.640e-1, -4.285e-1
1.650e-1, -4.274e-1
1.660e-1, -4.263e-1
1.670e-1, -4.251e-1
1.680e-1, -4.240e-1
1.690e-1, -4.229e-1
1.700e-1, -4.218e-1
1.710e-1, -4.208e-1
1.720e-1, -4.197e-1
1.730e-1, -4.187e-1
1.740e-1, -4.176e-1
1.750e-1, -4.165e-1
1.760e-1, -4.155e-1
1.770e-1, -4.145e-1
1.780e-1, -4.135e-1
1.790e-1, -4.125e-1
1.800e-1, -4.115e-1
1.810e-1, -4.105e-1
1.820e-1, -4.095e-1
1.830e-1, -4.085e-1
1.840e-1, -4.076e-1
1.850e-1, -4.066e-1
1.860e-1, -4.056e-1
1.870e-1, -4.047e-1
1.880e-1, -4.037e-1
1.890e-1, -4.028e-1
1.900e-1, -4.019e-1
1.910e-1, -4.009e-1
1.920e-1, -4.001e-1
1.930e-1, -3.991e-1
1.940e-1, -3.982e-1
1.950e-1, -3.974e-1
1.960e-1, -3.965e-1
1.970e-1, -3.956e-1
1.980e-1, -3.947e-1
1.990e-1, -3.939e-1
2.000e-1, -3.930e-1
2.010e-1, -3.921e-1
2.020e-1, -3.913e-1
2.030e-1, -3.904e-1
2.040e-1, -3.896e-1
2.050e-1, -3.887e-1
2.060e-1, -3.879e-1
2.070e-1, -3.871e-1
2.080e-1, -3.862e-1
2.090e-1, -3.854e-1
2.100e-1, -3.846e-1
2.110e-1, -3.838e-1
2.120e-1, -3.830e-1
2.130e-1, -3.822e-1
2.140e-1, -3.814e-1
2.150e-1, -3.806e-1
2.160e-1, -3.798e-1
2.170e-1, -3.791e-1
2.180e-1, -3.783e-1
2.190e-1, -3.775e-1
2.200e-1, -3.767e-1
2.210e-1, -3.760e-1
2.220e-1, -3.752e-1
2.230e-1, -3.745e-1
2.240e-1, -3.737e-1
2.250e-1, -3.730e-1
2.260e-1, -3.722e-1
2.270e-1, -3.715e-1
2.280e-1, -3.707e-1
2.290e-1, -3.700e-1
2.300e-1, -3.693e-1
2.310e-1, -3.685e-1
2.320e-1, -3.678e-1
2.330e-1, -3.671e-1
2.340e-1, -3.664e-1
2.350e-1, -3.656e-1
2.360e-1, -3.649e-1
2.370e-1, -3.642e-1
2.380e-1, -3.636e-1
2.390e-1, -3.629e-1
2.400e-1, -3.621e-1
2.410e-1, -3.615e-1
2.420e-1, -3.608e-1
2.430e-1, -3.601e-1
2.440e-1, -3.594e-1
2.450e-1, -3.587e-1
2.460e-1, -3.581e-1
2.470e-1, -3.574e-1
2.480e-1, -3.567e-1
2.490e-1, -3.560e-1
2.500e-1, -3.553e-1
2.510e-1, -3.547e-1
2.520e-1, -3.540e-1
2.530e-1, -3.534e-1
2.540e-1, -3.527e-1
2.550e-1, -3.520e-1
2.560e-1, -3.514e-1
2.570e-1, -3.507e-1
2.580e-1, -3.501e-1
2.590e-1, -3.494e-1
2.600e-1, -3.487e-1
2.610e-1, -3.481e-1
2.620e-1, -3.475e-1
2.630e-1, -3.469e-1
2.640e-1, -3.462e-1
2.650e-1, -3.455e-1
2.660e-1, -3.449e-1
2.670e-1, -3.443e-1
2.680e-1, -3.437e-1
2.690e-1, -3.431e-1
2.700e-1, -3.425e-1
2.710e-1, -3.418e-1
2.720e-1, -3.412e-1
2.730e-1, -3.406e-1
2.740e-1, -3.400e-1
2.750e-1, -3.395e-1
2.760e-1, -3.388e-1
2.770e-1, -3.383e-1
2.780e-1, -3.377e-1
2.790e-1, -3.371e-1
2.800e-1, -3.366e-1
2.810e-1, -3.360e-1
2.820e-1, -3.354e-1
2.830e-1, -3.348e-1
2.840e-1, -3.343e-1
2.850e-1, -3.337e-1
2.860e-1, -3.332e-1
2.870e-1, -3.326e-1
2.880e-1, -3.320e-1
2.890e-1, -3.315e-1
2.900e-1, -3.310e-1
2.910e-1, -3.305e-1
2.920e-1, -3.300e-1
2.930e-1, -3.295e-1
2.940e-1, -3.289e-1
2.950e-1, -3.285e-1
2.960e-1, -3.280e-1
2.970e-1, -3.275e-1
2.980e-1, -3.270e-1
2.990e-1, -3.265e-1
3.000e-1, -3.260e-1
3.010e-1, -3.255e-1
3.020e-1, -3.250e-1
3.030e-1, -3.245e-1
3.040e-1, -3.240e-1
3.050e-1, -3.235e-1
3.060e-1, -3.230e-1
3.070e-1, -3.225e-1
3.080e-1, -3.220e-1
3.090e-1, -3.215e-1
3.100e-1, -3.210e-1
3.110e-1, -3.205e-1
3.120e-1, -3.200e-1
3.130e-1, -3.194e-1
3.140e-1, -3.190e-1
3.150e-1, -3.185e-1
3.160e-1, -3.180e-1
3.170e-1, -3.174e-1
3.180e-1, -3.170e-1
3.190e-1, -3.165e-1
3.200e-1, -3.159e-1
3.210e-1, -3.154e-1
3.220e-1, -3.150e-1
3.230e-1, -3.144e-1
3.240e-1, -3.140e-1
3.250e-1, -3.134e-1
3.260e-1, -3.130e-1
3.270e-1, -3.125e-1
3.280e-1, -3.120e-1
3.290e-1, -3.115e-1
3.300e-1, -3.109e-1
3.310e-1, -3.105e-1
3.320e-1, -3.100e-1
3.330e-1, -3.094e-1
3.340e-1, -3.090e-1
3.350e-1, -3.084e-1
3.360e-1, -3.079e-1
3.370e-1, -3.074e-1
3.380e-1, -3.069e-1
3.390e-1, -3.063e-1
3.400e-1, -3.058e-1
3.410e-1, -3.052e-1
3.420e-1, -3.047e-1
3.430e-1, -3.041e-1
3.440e-1, -3.035e-1
3.450e-1, -3.030e-1
3.460e-1, -3.025e-1
3.470e-1, -3.019e-1
3.480e-1, -3.014e-1
3.490e-1, -3.008e-1
3.500e-1, -3.003e-1
3.510e-1, -2.998e-1
3.520e-1, -2.994e-1
3.530e-1, -2.989e-1
3.540e-1, -2.985e-1
3.550e-1, -2.981e-1
3.560e-1, -2.976e-1
3.570e-1, -2.972e-1
3.580e-1, -2.967e-1
3.590e-1, -2.963e-1
3.600e-1, -2.959e-1
3.610e-1, -2.954e-1
3.620e-1, -2.950e-1
3.630e-1, -2.945e-1
3.640e-1, -2.941e-1
3.650e-1, -2.937e-1
3.660e-1, -2.932e-1
3.670e-1, -2.928e-1
3.680e-1, -2.924e-1
3.690e-1, -2.920e-1
3.700e-1, -2.916e-1
3.710e-1, -2.912e-1
3.720e-1, -2.908e-1
3.730e-1, -2.903e-1
3.740e-1, -2.900e-1
3.750e-1, -2.895e-1
3.760e-1, -2.891e-1
3.770e-1, -2.887e-1
3.780e-1, -2.884e-1
3.790e-1, -2.880e-1
3.800e-1, -2.876e-1
3.810e-1, -2.873e-1
3.820e-1, -2.869e-1
3.830e-1, -2.866e-1
3.840e-1, -2.862e-1
3.850e-1, -2.858e-1
3.860e-1, -2.855e-1
3.870e-1, -2.851e-1
3.880e-1, -2.847e-1
3.890e-1, -2.843e-1
3.900e-1, -2.840e-1
3.910e-1, -2.836e-1
3.920e-1, -2.832e-1
3.930e-1, -2.829e-1
3.940e-1, -2.824e-1
3.950e-1, -2.820e-1
3.960e-1, -2.816e-1
3.970e-1, -2.813e-1
3.980e-1, -2.809e-1
3.990e-1, -2.805e-1
4.000e-1, -2.801e-1
4.010e-1, -2.797e-1
4.020e-1, -2.793e-1
4.030e-1, -2.789e-1
4.040e-1, -2.785e-1
4.050e-1, -2.781e-1
4.060e-1, -2.777e-1
4.070e-1, -2.774e-1
4.080e-1, -2.769e-1
4.090e-1, -2.765e-1
4.100e-1, -2.761e-1
4.110e-1, -2.757e-1
4.120e-1, -2.754e-1
4.130e-1, -2.749e-1
4.140e-1, -2.746e-1
4.150e-1, -2.742e-1
4.160e-1, -2.738e-1
4.170e-1, -2.734e-1
4.180e-1, -2.730e-1
4.190e-1, -2.726e-1
4.200e-1, -2.722e-1
4.210e-1, -2.718e-1
4.220e-1, -2.714e-1
4.230e-1, -2.710e-1
4.240e-1, -2.707e-1
4.250e-1, -2.702e-1
4.260e-1, -2.699e-1
4.270e-1, -2.695e-1
4.280e-1, -2.691e-1
4.290e-1, -2.687e-1
4.300e-1, -2.683e-1
4.310e-1, -2.679e-1
4.320e-1, -2.675e-1
4.330e-1, -2.672e-1
4.340e-1, -2.667e-1
4.350e-1, -2.664e-1
4.360e-1, -2.660e-1
4.370e-1, -2.656e-1
4.380e-1, -2.653e-1
4.390e-1, -2.648e-1
4.400e-1, -2.645e-1
4.410e-1, -2.641e-1
4.420e-1, -2.637e-1
4.430e-1, -2.633e-1
4.440e-1, -2.630e-1
4.450e-1, -2.626e-1
4.460e-1, -2.622e-1
4.470e-1, -2.618e-1
4.480e-1, -2.614e-1
4.490e-1, -2.611e-1
4.500e-1, -2.607e-1
4.510e-1, -2.603e-1
4.520e-1, -2.599e-1
4.530e-1, -2.595e-1
4.540e-1, -2.591e-1
4.550e-1, -2.588e-1
4.560e-1, -2.584e-1
4.570e-1, -2.580e-1
4.580e-1, -2.576e-1
4.590e-1, -2.573e-1
4.600e-1, -2.569e-1
4.610e-1, -2.565e-1
4.620e-1, -2.562e-1
4.630e-1, -2.558e-1
4.640e-1, -2.554e-1
4.650e-1, -2.551e-1
4.660e-1, -2.547e-1
4.670e-1, -2.543e-1
4.680e-1, -2.539e-1
4.690e-1, -2.536e-1
4.700e-1, -2.532e-1
4.710e-1, -2.529e-1
4.720e-1, -2.525e-1
4.730e-1, -2.521e-1
4.740e-1, -2.518e-1
4.750e-1, -2.514e-1
4.760e-1, -2.510e-1
4.770e-1, -2.506e-1
4.780e-1, -2.503e-1
4.790e-1, -2.499e-1
4.800e-1, -2.496e-1
4.810e-1, -2.492e-1
4.820e-1, -2.488e-1
4.830e-1, -2.484e-1
4.840e-1, -2.481e-1
4.850e-1, -2.477e-1
4.860e-1, -2.474e-1
4.870e-1, -2.470e-1
4.880e-1, -2.467e-1
4.890e-1, -2.463e-1
4.900e-1, -2.460e-1
4.910e-1, -2.456e-1
4.920e-1, -2.452e-1
4.930e-1, -2.449e-1
4.940e-1, -2.445e-1
4.950e-1, -2.441e-1
4.960e-1, -2.438e-1
4.970e-1, -2.434e-1
4.980e-1, -2.431e-1
4.990e-1, -2.427e-1
5.000e-1, -2.423e-1
5.010e-1, -2.420e-1
5.020e-1, -2.417e-1
5.030e-1, -2.413e-1
5.040e-1, -2.410e-1
5.050e-1, -2.406e-1
5.060e-1, -2.403e-1
5.070e-1, -2.400e-1
5.080e-1, -2.396e-1
5.090e-1, -2.393e-1
5.100e-1, -2.389e-1
5.110e-1, -2.385e-1
5.120e-1, -2.382e-1
5.130e-1, -2.378e-1
5.140e-1, -2.375e-1
5.150e-1, -2.371e-1
5.160e-1, -2.368e-1
5.170e-1, -2.364e-1
5.180e-1, -2.361e-1
5.190e-1, -2.357e-1
5.200e-1, -2.354e-1
5.210e-1, -2.351e-1
5.220e-1, -2.347e-1
5.230e-1, -2.344e-1
5.240e-1, -2.340e-1
5.250e-1, -2.336e-1
5.260e-1, -2.334e-1
5.270e-1, -2.330e-1
5.280e-1, -2.326e-1
5.290e-1, -2.323e-1
5.300e-1, -2.319e-1
5.310e-1, -2.316e-1
5.320e-1, -2.312e-1
5.330e-1, -2.309e-1
5.340e-1, -2.305e-1
5.350e-1, -2.302e-1
5.360e-1, -2.299e-1
5.370e-1, -2.295e-1
5.380e-1, -2.292e-1
5.390e-1, -2.288e-1
5.400e-1, -2.285e-1
5.410e-1, -2.281e-1
5.420e-1, -2.278e-1
5.430e-1, -2.274e-1
5.440e-1, -2.271e-1
5.450e-1, -2.268e-1
5.460e-1, -2.264e-1
5.470e-1, -2.261e-1
5.480e-1, -2.258e-1
5.490e-1, -2.254e-1
5.500e-1, -2.251e-1
5.510e-1, -2.248e-1
5.520e-1, -2.244e-1
5.530e-1, -2.241e-1
5.540e-1, -2.238e-1
5.550e-1, -2.234e-1
5.560e-1, -2.231e-1
5.570e-1, -2.227e-1
5.580e-1, -2.224e-1
5.590e-1, -2.221e-1
5.600e-1, -2.217e-1
5.610e-1, -2.214e-1
5.620e-1, -2.210e-1
5.630e-1, -2.207e-1
5.640e-1, -2.204e-1
5.650e-1, -2.200e-1
5.660e-1, -2.197e-1
5.670e-1, -2.194e-1
5.680e-1, -2.191e-1
5.690e-1, -2.187e-1
5.700e-1, -2.183e-1
5.710e-1, -2.180e-1
5.720e-1, -2.177e-1
5.730e-1, -2.174e-1
5.740e-1, -2.170e-1
5.750e-1, -2.167e-1
5.760e-1, -2.163e-1
5.770e-1, -2.160e-1
5.780e-1, -2.157e-1
5.790e-1, -2.154e-1
5.800e-1, -2.151e-1
5.810e-1, -2.147e-1
5.820e-1, -2.144e-1
5.830e-1, -2.141e-1
5.840e-1, -2.137e-1
5.850e-1, -2.134e-1
5.860e-1, -2.131e-1
5.870e-1, -2.128e-1
5.880e-1, -2.124e-1
5.890e-1, -2.121e-1
5.900e-1, -2.117e-1
5.910e-1, -2.114e-1
5.920e-1, -2.111e-1
5.930e-1, -2.107e-1
5.940e-1, -2.104e-1
5.950e-1, -2.101e-1
5.960e-1, -2.098e-1
5.970e-1, -2.094e-1
5.980e-1, -2.091e-1
5.990e-1, -2.088e-1
6.000e-1, -2.084e-1
6.010e-1, -2.081e-1
6.020e-1, -2.078e-1
6.030e-1, -2.075e-1
6.040e-1, -2.072e-1
6.050e-1, -2.068e-1
6.060e-1, -2.065e-1
6.070e-1, -2.062e-1
6.080e-1, -2.059e-1
6.090e-1, -2.055e-1
6.100e-1, -2.052e-1
6.110e-1, -2.049e-1
6.120e-1, -2.046e-1
6.130e-1, -2.043e-1
6.140e-1, -2.039e-1
6.150e-1, -2.036e-1
6.160e-1, -2.033e-1
6.170e-1, -2.029e-1
6.180e-1, -2.026e-1
6.190e-1, -2.023e-1
6.200e-1, -2.020e-1
6.210e-1, -2.017e-1
6.220e-1, -2.013e-1
6.230e-1, -2.010e-1
6.240e-1, -2.007e-1
6.250e-1, -2.004e-1
6.260e-1, -2.000e-1
6.270e-1, -1.997e-1
6.280e-1, -1.994e-1
6.290e-1, -1.991e-1
6.300e-1, -1.988e-1
6.310e-1, -1.985e-1
6.320e-1, -1.982e-1
6.330e-1, -1.978e-1
6.340e-1, -1.975e-1
6.350e-1, -1.972e-1
6.360e-1, -1.968e-1
6.370e-1, -1.966e-1
6.380e-1, -1.962e-1
6.390e-1, -1.959e-1
6.400e-1, -1.956e-1
6.410e-1, -1.953e-1
6.420e-1, -1.949e-1
6.430e-1, -1.946e-1
6.440e-1, -1.943e-1
6.450e-1, -1.940e-1
6.460e-1, -1.937e-1
6.470e-1, -1.934e-1
6.480e-1, -1.931e-1
6.490e-1, -1.928e-1
6.500e-1, -1.924e-1
6.510e-1, -1.921e-1
6.520e-1, -1.918e-1
6.530e-1, -1.915e-1
6.540e-1, -1.911e-1
6.550e-1, -1.908e-1
6.560e-1, -1.905e-1
6.570e-1, -1.902e-1
6.580e-1, -1.899e-1
6.590e-1, -1.896e-1
6.600e-1, -1.892e-1
6.610e-1, -1.889e-1
6.620e-1, -1.886e-1
6.630e-1, -1.883e-1
6.640e-1, -1.880e-1
6.650e-1, -1.877e-1
6.660e-1, -1.873e-1
6.670e-1, -1.870e-1
6.680e-1, -1.868e-1
6.690e-1, -1.864e-1
6.700e-1, -1.862e-1
6.710e-1, -1.858e-1
6.720e-1, -1.855e-1
6.730e-1, -1.852e-1
6.740e-1, -1.848e-1
6.750e-1, -1.846e-1
6.760e-1, -1.843e-1
6.770e-1, -1.839e-1
6.780e-1, -1.836e-1
6.790e-1, -1.833e-1
6.800e-1, -1.830e-1
6.810e-1, -1.827e-1
6.820e-1, -1.824e-1
6.830e-1, -1.821e-1
6.840e-1, -1.818e-1
6.850e-1, -1.814e-1
6.860e-1, -1.811e-1
6.870e-1, -1.809e-1
6.880e-1, -1.805e-1
6.890e-1, -1.802e-1
6.900e-1, -1.799e-1
6.910e-1, -1.796e-1
6.920e-1, -1.793e-1
6.930e-1, -1.789e-1
6.940e-1, -1.786e-1
6.950e-1, -1.783e-1
6.960e-1, -1.780e-1
6.970e-1, -1.777e-1
6.980e-1, -1.774e-1
6.990e-1, -1.771e-1
7.000e-1, -1.768e-1
7.010e-1, -1.765e-1
7.020e-1, -1.762e-1
7.030e-1, -1.759e-1
7.040e-1, -1.755e-1
7.050e-1, -1.752e-1
7.060e-1, -1.750e-1
7.070e-1, -1.746e-1
7.080e-1, -1.743e-1
7.090e-1, -1.740e-1
7.100e-1, -1.737e-1
7.110e-1, -1.734e-1
7.120e-1, -1.731e-1
7.130e-1, -1.728e-1
7.140e-1, -1.724e-1
7.150e-1, -1.722e-1
7.160e-1, -1.719e-1
7.170e-1, -1.715e-1
7.180e-1, -1.712e-1
7.190e-1, -1.709e-1
7.200e-1, -1.706e-1
7.210e-1, -1.703e-1
7.220e-1, -1.700e-1
7.230e-1, -1.697e-1
7.240e-1, -1.694e-1
7.250e-1, -1.690e-1
7.260e-1, -1.688e-1
7.270e-1, -1.685e-1
7.280e-1, -1.682e-1
7.290e-1, -1.679e-1
7.300e-1, -1.676e-1
7.310e-1, -1.673e-1
7.320e-1, -1.669e-1
7.330e-1, -1.666e-1
7.340e-1, -1.664e-1
7.350e-1, -1.660e-1
7.360e-1, -1.657e-1
7.370e-1, -1.654e-1
7.380e-1, -1.651e-1
7.390e-1, -1.648e-1
7.400e-1, -1.645e-1
7.410e-1, -1.642e-1
7.420e-1, -1.639e-1
7.430e-1, -1.636e-1
7.440e-1, -1.633e-1
7.450e-1, -1.630e-1
7.460e-1, -1.627e-1
7.470e-1, -1.624e-1
7.480e-1, -1.621e-1
7.490e-1, -1.618e-1
7.500e-1, -1.615e-1
7.510e-1, -1.612e-1
7.520e-1, -1.609e-1
7.530e-1, -1.606e-1
7.540e-1, -1.603e-1
7.550e-1, -1.600e-1
7.560e-1, -1.597e-1
7.570e-1, -1.594e-1
7.580e-1, -1.591e-1
7.590e-1, -1.588e-1
7.600e-1, -1.585e-1
7.610e-1, -1.582e-1
7.620e-1, -1.579e-1
7.630e-1, -1.576e-1
7.640e-1, -1.573e-1
7.650e-1, -1.570e-1
7.660e-1, -1.567e-1
7.670e-1, -1.564e-1
7.680e-1, -1.561e-1
7.690e-1, -1.558e-1
7.700e-1, -1.555e-1
7.710e-1, -1.552e-1
7.720e-1, -1.549e-1
7.730e-1, -1.546e-1
7.740e-1, -1.543e-1
7.750e-1, -1.540e-1
7.760e-1, -1.537e-1
7.770e-1, -1.534e-1
7.780e-1, -1.531e-1
7.790e-1, -1.527e-1
7.800e-1, -1.525e-1
7.810e-1, -1.522e-1
7.820e-1, -1.518e-1
7.830e-1, -1.515e-1
7.840e-1, -1.512e-1
7.850e-1, -1.509e-1
7.860e-1, -1.507e-1
7.870e-1, -1.504e-1
7.880e-1, -1.501e-1
7.890e-1, -1.498e-1
7.900e-1, -1.495e-1
7.910e-1, -1.492e-1
7.920e-1, -1.488e-1
7.930e-1, -1.486e-1
7.940e-1, -1.483e-1
7.950e-1, -1.479e-1
7.960e-1, -1.477e-1
7.970e-1, -1.474e-1
7.980e-1, -1.471e-1
7.990e-1, -1.468e-1
8.000e-1, -1.465e-1
8.010e-1, -1.462e-1
8.020e-1, -1.459e-1
8.030e-1, -1.456e-1
8.040e-1, -1.453e-1
8.050e-1, -1.450e-1
8.060e-1, -1.447e-1
8.070e-1, -1.444e-1
8.080e-1, -1.441e-1
8.090e-1, -1.438e-1
8.100e-1, -1.435e-1
8.110e-1, -1.432e-1
8.120e-1, -1.429e-1
8.130e-1, -1.426e-1
8.140e-1, -1.423e-1
8.150e-1, -1.420e-1
8.160e-1, -1.417e-1
8.170e-1, -1.414e-1
8.180e-1, -1.411e-1
8.190e-1, -1.408e-1
8.200e-1, -1.405e-1
8.210e-1, -1.402e-1
8.220e-1, -1.399e-1
8.230e-1, -1.396e-1
8.240e-1, -1.394e-1
8.250e-1, -1.391e-1
8.260e-1, -1.388e-1
8.270e-1, -1.385e-1
8.280e-1, -1.382e-1
8.290e-1, -1.379e-1
8.300e-1, -1.376e-1
8.310e-1, -1.373e-1
8.320e-1, -1.370e-1
8.330e-1, -1.367e-1
8.340e-1, -1.364e-1
8.350e-1, -1.361e-1
8.360e-1, -1.358e-1
8.370e-1, -1.355e-1
8.380e-1, -1.352e-1
8.390e-1, -1.350e-1
8.400e-1, -1.347e-1
8.410e-1, -1.344e-1
8.420e-1, -1.341e-1
8.430e-1, -1.338e-1
8.440e-1, -1.335e-1
8.450e-1, -1.332e-1
8.460e-1, -1.329e-1
8.470e-1, -1.326e-1
8.480e-1, -1.323e-1
8.490e-1, -1.320e-1
8.500e-1, -1.317e-1
8.510e-1, -1.314e-1
8.520e-1, -1.311e-1
8.530e-1, -1.308e-1
8.540e-1, -1.305e-1
8.550e-1, -1.302e-1
8.560e-1, -1.299e-1
8.570e-1, -1.297e-1
8.580e-1, -1.294e-1
8.590e-1, -1.291e-1
8.600e-1, -1.288e-1
8.610e-1, -1.285e-1
8.620e-1, -1.282e-1
8.630e-1, -1.279e-1
8.640e-1, -1.276e-1
8.650e-1, -1.273e-1
8.660e-1, -1.270e-1
8.670e-1, -1.268e-1
8.680e-1, -1.265e-1
8.690e-1, -1.262e-1
8.700e-1, -1.259e-1
8.710e-1, -1.256e-1
8.720e-1, -1.253e-1
8.730e-1, -1.250e-1
8.740e-1, -1.247e-1
8.750e-1, -1.244e-1
8.760e-1, -1.242e-1
8.770e-1, -1.238e-1
8.780e-1, -1.236e-1
8.790e-1, -1.233e-1
8.800e-1, -1.230e-1
8.810e-1, -1.227e-1
8.820e-1, -1.224e-1
8.830e-1, -1.221e-1
8.840e-1, -1.218e-1
8.850e-1, -1.215e-1
8.860e-1, -1.213e-1
8.870e-1, -1.210e-1
8.880e-1, -1.207e-1
8.890e-1, -1.204e-1
8.900e-1, -1.201e-1
8.910e-1, -1.198e-1
8.920e-1, -1.195e-1
8.930e-1, -1.192e-1
8.940e-1, -1.189e-1
8.950e-1, -1.187e-1
8.960e-1, -1.184e-1
8.970e-1, -1.181e-1
8.980e-1, -1.178e-1
8.990e-1, -1.175e-1
9.000e-1, -1.172e-1
9.010e-1, -1.169e-1
9.020e-1, -1.167e-1
9.030e-1, -1.163e-1
9.040e-1, -1.161e-1
9.050e-1, -1.158e-1
9.060e-1, -1.155e-1
9.070e-1, -1.152e-1
9.080e-1, -1.149e-1
9.090e-1, -1.147e-1
9.100e-1, -1.143e-1
9.110e-1, -1.141e-1
9.120e-1, -1.138e-1
9.130e-1, -1.134e-1
9.140e-1, -1.132e-1
9.150e-1, -1.129e-1
9.160e-1, -1.126e-1
9.170e-1, -1.123e-1
9.180e-1, -1.120e-1
9.190e-1, -1.117e-1
9.200e-1, -1.115e-1
9.210e-1, -1.112e-1
9.220e-1, -1.109e-1
9.230e-1, -1.106e-1
9.240e-1, -1.103e-1
9.250e-1, -1.100e-1
9.260e-1, -1.098e-1
9.270e-1, -1.095e-1
9.280e-1, -1.092e-1
9.290e-1, -1.089e-1
9.300e-1, -1.086e-1
9.310e-1, -1.083e-1
9.320e-1, -1.080e-1
9.330e-1, -1.078e-1
9.340e-1, -1.075e-1
9.350e-1, -1.072e-1
9.360e-1, -1.069e-1
9.370e-1, -1.066e-1
9.380e-1, -1.063e-1
9.390e-1, -1.060e-1
9.400e-1, -1.058e-1
9.410e-1, -1.055e-1
9.420e-1, -1.052e-1
9.430e-1, -1.049e-1
9.440e-1, -1.046e-1
9.450e-1, -1.043e-1
9.460e-1, -1.040e-1
9.470e-1, -1.038e-1
9.480e-1, -1.035e-1
9.490e-1, -1.032e-1
9.500e-1, -1.029e-1
9.510e-1, -1.026e-1
9.520e-1, -1.024e-1
9.530e-1, -1.021e-1
9.540e-1, -1.018e-1
9.550e-1, -1.015e-1
9.560e-1, -1.012e-1
9.570e-1, -1.009e-1
9.580e-1, -1.007e-1
9.590e-1, -1.004e-1
9.600e-1, -1.001e-1
9.610e-1, -9.980e-2
9.620e-1, -9.953e-2
9.630e-1, -9.924e-2
9.640e-1, -9.897e-2
9.650e-1, -9.868e-2
9.660e-1, -9.845e-2
9.670e-1, -9.815e-2
9.680e-1, -9.784e-2
9.690e-1, -9.758e-2
9.700e-1, -9.726e-2
9.710e-1, -9.703e-2
9.720e-1, -9.675e-2
9.730e-1, -9.649e-2
9.740e-1, -9.615e-2
9.750e-1, -9.587e-2
9.760e-1, -9.559e-2
9.770e-1, -9.532e-2
9.780e-1, -9.508e-2
9.790e-1, -9.477e-2
9.800e-1, -9.449e-2
9.810e-1, -9.422e-2
9.820e-1, -9.392e-2
9.830e-1, -9.364e-2
9.840e-1, -9.332e-2
9.850e-1, -9.310e-2
9.860e-1, -9.277e-2
9.870e-1, -9.253e-2
9.880e-1, -9.223e-2
9.890e-1, -9.196e-2
9.900e-1, -9.172e-2
9.910e-1, -9.140e-2
9.920e-1, -9.113e-2
9.930e-1, -9.084e-2
9.940e-1, -9.055e-2
9.950e-1, -9.027e-2
9.960e-1, -9.000e-2
9.970e-1, -8.974e-2
9.980e-1, -8.943e-2
9.990e-1, -8.917e-2
1.000e+0, -8.891e-2
1.001e+0, -8.864e-2
1.002e+0, -8.835e-2
1.003e+0, -8.806e-2
1.004e+0, -8.780e-2
1.005e+0, -8.751e-2
1.006e+0, -8.726e-2
1.007e+0, -8.697e-2
1.008e+0, -8.668e-2
1.009e+0, -8.642e-2
1.010e+0, -8.613e-2
1.011e+0, -8.585e-2
1.012e+0, -8.557e-2
1.013e+0, -8.527e-2
1.014e+0, -8.502e-2
1.015e+0, -8.476e-2
1.016e+0, -8.450e-2
1.017e+0, -8.421e-2
1.018e+0, -8.394e-2
1.019e+0, -8.367e-2
1.020e+0, -8.340e-2
1.021e+0, -8.310e-2
1.022e+0, -8.284e-2
1.023e+0, -8.259e-2
1.024e+0, -8.231e-2
1.025e+0, -8.204e-2
1.026e+0, -8.172e-2
1.027e+0, -8.146e-2
1.028e+0, -8.124e-2
1.029e+0, -8.091e-2
1.030e+0, -8.068e-2
1.031e+0, -8.036e-2
1.032e+0, -8.009e-2
1.033e+0, -7.982e-2
1.034e+0, -7.953e-2
1.035e+0, -7.929e-2
1.036e+0, -7.900e-2
1.037e+0, -7.876e-2
1.038e+0, -7.845e-2
1.039e+0, -7.818e-2
1.040e+0, -7.788e-2
1.041e+0, -7.762e-2
1.042e+0, -7.740e-2
1.043e+0, -7.710e-2
1.044e+0, -7.684e-2
1.045e+0, -7.653e-2
1.046e+0, -7.625e-2
1.047e+0, -7.602e-2
1.048e+0, -7.572e-2
1.049e+0, -7.549e-2
1.050e+0, -7.519e-2
1.051e+0, -7.491e-2
1.052e+0, -7.463e-2
1.053e+0, -7.435e-2
1.054e+0, -7.405e-2
1.055e+0, -7.378e-2
1.056e+0, -7.355e-2
1.057e+0, -7.324e-2
1.058e+0, -7.299e-2
1.059e+0, -7.270e-2
1.060e+0, -7.242e-2
1.061e+0, -7.216e-2
1.062e+0, -7.188e-2
1.063e+0, -7.164e-2
1.064e+0, -7.133e-2
1.065e+0, -7.103e-2
1.066e+0, -7.082e-2
1.067e+0, -7.054e-2
1.068e+0, -7.030e-2
1.069e+0, -7.000e-2
1.070e+0, -6.975e-2
1.071e+0, -6.947e-2
1.072e+0, -6.922e-2
1.073e+0, -6.892e-2
1.074e+0, -6.865e-2
1.075e+0, -6.840e-2
1.076e+0, -6.811e-2
1.077e+0, -6.786e-2
1.078e+0, -6.757e-2
1.079e+0, -6.728e-2
1.080e+0, -6.706e-2
1.081e+0, -6.675e-2
1.082e+0, -6.652e-2
1.083e+0, -6.622e-2
1.084e+0, -6.595e-2
1.085e+0, -6.568e-2
1.086e+0, -6.543e-2
1.087e+0, -6.518e-2
1.088e+0, -6.487e-2
1.089e+0, -6.464e-2
1.090e+0, -6.435e-2
1.091e+0, -6.408e-2
1.092e+0, -6.377e-2
1.093e+0, -6.352e-2
1.094e+0, -6.329e-2
1.095e+0, -6.300e-2
1.096e+0, -6.274e-2
1.097e+0, -6.244e-2
1.098e+0, -6.218e-2
1.099e+0, -6.191e-2
1.100e+0, -6.164e-2
1.101e+0, -6.141e-2
1.102e+0, -6.112e-2
1.103e+0, -6.085e-2
1.104e+0, -6.059e-2
1.105e+0, -6.032e-2
1.106e+0, -6.007e-2
1.107e+0, -5.980e-2
1.108e+0, -5.957e-2
1.109e+0, -5.928e-2
1.110e+0, -5.902e-2
1.111e+0, -5.877e-2
1.112e+0, -5.848e-2
1.113e+0, -5.824e-2
1.114e+0, -5.795e-2
1.115e+0, -5.771e-2
1.116e+0, -5.741e-2
1.117e+0, -5.715e-2
1.118e+0, -5.690e-2
1.119e+0, -5.659e-2
1.120e+0, -5.638e-2
1.121e+0, -5.609e-2
1.122e+0, -5.581e-2
1.123e+0, -5.558e-2
1.124e+0, -5.530e-2
1.125e+0, -5.503e-2
1.126e+0, -5.474e-2
1.127e+0, -5.453e-2
1.128e+0, -5.422e-2
1.129e+0, -5.397e-2
1.130e+0, -5.369e-2
1.131e+0, -5.342e-2
1.132e+0, -5.318e-2
1.133e+0, -5.289e-2
1.134e+0, -5.266e-2
1.135e+0, -5.237e-2
1.136e+0, -5.211e-2
1.137e+0, -5.185e-2
1.138e+0, -5.159e-2
1.139e+0, -5.135e-2
1.140e+0, -5.107e-2
1.141e+0, -5.080e-2
1.142e+0, -5.055e-2
1.143e+0, -5.028e-2
1.144e+0, -5.000e-2
1.145e+0, -4.976e-2
1.146e+0, -4.954e-2
1.147e+0, -4.926e-2
1.148e+0, -4.899e-2
1.149e+0, -4.871e-2
1.150e+0, -4.847e-2
1.151e+0, -4.825e-2
1.152e+0, -4.793e-2
1.153e+0, -4.772e-2
1.154e+0, -4.741e-2
1.155e+0, -4.715e-2
1.156e+0, -4.689e-2
1.157e+0, -4.662e-2
1.158e+0, -4.639e-2
1.159e+0, -4.611e-2
1.160e+0, -4.587e-2
1.161e+0, -4.560e-2
1.162e+0, -4.535e-2
1.163e+0, -4.511e-2
1.164e+0, -4.486e-2
1.165e+0, -4.462e-2
1.166e+0, -4.433e-2
1.167e+0, -4.410e-2
1.168e+0, -4.381e-2
1.169e+0, -4.355e-2
1.170e+0, -4.334e-2
1.171e+0, -4.304e-2
1.172e+0, -4.282e-2
1.173e+0, -4.251e-2
1.174e+0, -4.225e-2
1.175e+0, -4.202e-2
1.176e+0, -4.174e-2
1.177e+0, -4.153e-2
1.178e+0, -4.122e-2
1.179e+0, -4.101e-2
1.180e+0, -4.074e-2
1.181e+0, -4.046e-2
1.182e+0, -4.021e-2
1.183e+0, -3.998e-2
1.184e+0, -3.974e-2
1.185e+0, -3.944e-2
1.186e+0, -3.922e-2
1.187e+0, -3.892e-2
1.188e+0, -3.869e-2
1.189e+0, -3.847e-2
1.190e+0, -3.816e-2
1.191e+0, -3.795e-2
1.192e+0, -3.765e-2
1.193e+0, -3.739e-2
1.194e+0, -3.715e-2
1.195e+0, -3.689e-2
1.196e+0, -3.665e-2
1.197e+0, -3.638e-2
1.198e+0, -3.617e-2
1.199e+0, -3.588e-2
1.200e+0, -3.562e-2
1.201e+0, -3.537e-2
1.202e+0, -3.509e-2
1.203e+0, -3.487e-2
1.204e+0, -3.460e-2
1.205e+0, -3.436e-2
1.206e+0, -3.407e-2
1.207e+0, -3.382e-2
1.208e+0, -3.362e-2
1.209e+0, -3.330e-2
1.210e+0, -3.310e-2
1.211e+0, -3.282e-2
1.212e+0, -3.260e-2
1.213e+0, -3.231e-2
1.214e+0, -3.207e-2
1.215e+0, -3.181e-2
1.216e+0, -3.154e-2
1.217e+0, -3.135e-2
1.218e+0, -3.105e-2
1.219e+0, -3.080e-2
1.220e+0, -3.055e-2
1.221e+0, -3.031e-2
1.222e+0, -3.012e-2
1.223e+0, -2.981e-2
1.224e+0, -2.960e-2
1.225e+0, -2.933e-2
1.226e+0, -2.905e-2
1.227e+0, -2.882e-2
1.228e+0, -2.856e-2
1.229e+0, -2.833e-2
1.230e+0, -2.807e-2
1.231e+0, -2.784e-2
1.232e+0, -2.759e-2
1.233e+0, -2.731e-2
1.234e+0, -2.706e-2
1.235e+0, -2.682e-2
1.236e+0, -2.660e-2
1.237e+0, -2.633e-2
1.238e+0, -2.608e-2
1.239e+0, -2.583e-2
1.240e+0, -2.557e-2
1.241e+0, -2.537e-2
1.242e+0, -2.507e-2
1.243e+0, -2.487e-2
1.244e+0, -2.459e-2
1.245e+0, -2.432e-2
1.246e+0, -2.411e-2
1.247e+0, -2.386e-2
1.248e+0, -2.363e-2
1.249e+0, -2.336e-2
1.250e+0, -2.313e-2
1.251e+0, -2.287e-2
1.252e+0, -2.261e-2
1.253e+0, -2.235e-2
1.254e+0, -2.212e-2
1.255e+0, -2.192e-2
1.256e+0, -2.163e-2
1.257e+0, -2.141e-2
1.258e+0, -2.112e-2
1.259e+0, -2.089e-2
1.260e+0, -2.067e-2
1.261e+0, -2.042e-2
1.262e+0, -2.021e-2
1.263e+0, -1.993e-2
1.264e+0, -1.968e-2
1.265e+0, -1.944e-2
1.266e+0, -1.922e-2
1.267e+0, -1.899e-2
1.268e+0, -1.869e-2
1.269e+0, -1.849e-2
1.270e+0, -1.823e-2
1.271e+0, -1.800e-2
1.272e+0, -1.775e-2
1.273e+0, -1.748e-2
1.274e+0, -1.727e-2
1.275e+0, -1.702e-2
1.276e+0, -1.683e-2
1.277e+0, -1.653e-2
1.278e+0, -1.629e-2
1.279e+0, -1.605e-2
1.280e+0, -1.581e-2
1.281e+0, -1.558e-2
1.282e+0, -1.531e-2
1.283e+0, -1.505e-2
1.284e+0, -1.482e-2
1.285e+0, -1.459e-2
1.286e+0, -1.435e-2
1.287e+0, -1.408e-2
1.288e+0, -1.389e-2
1.289e+0, -1.362e-2
1.290e+0, -1.343e-2
1.291e+0, -1.316e-2
1.292e+0, -1.293e-2
1.293e+0, -1.270e-2
1.294e+0, -1.244e-2
1.295e+0, -1.222e-2
1.296e+0, -1.194e-2
1.297e+0, -1.172e-2
1.298e+0, -1.147e-2
1.299e+0, -1.127e-2
1.300e+0, -1.104e-2
1.301e+0, -1.078e-2
1.302e+0, -1.054e-2
1.303e+0, -1.031e-2
1.304e+0, -1.007e-2
1.305e+0, -9.822e-3
1.306e+0, -9.590e-3
1.307e+0, -9.408e-3
1.308e+0, -9.172e-3
1.309e+0, -8.915e-3
1.310e+0, -8.660e-3
1.311e+0, -8.422e-3
1.312e+0, -8.248e-3
1.313e+0, -7.961e-3
1.314e+0, -7.785e-3
1.315e+0, -7.483e-3
1.316e+0, -7.238e-3
1.317e+0, -7.016e-3
1.318e+0, -6.778e-3
1.319e+0, -6.573e-3
1.320e+0, -6.304e-3
1.321e+0, -6.096e-3
1.322e+0, -5.890e-3
1.323e+0, -5.653e-3
1.324e+0, -5.412e-3
1.325e+0, -5.192e-3
1.326e+0, -4.980e-3
1.327e+0, -4.766e-3
1.328e+0, -4.518e-3
1.329e+0, -4.262e-3
1.330e+0, -4.037e-3
1.331e+0, -3.849e-3
1.332e+0, -3.574e-3
1.333e+0, -3.356e-3
1.334e+0, -3.102e-3
1.335e+0, -2.891e-3
1.336e+0, -2.640e-3
1.337e+0, -2.407e-3
1.338e+0, -2.225e-3
1.339e+0, -1.963e-3
1.340e+0, -1.758e-3
1.341e+0, -1.489e-3
1.342e+0, -1.271e-3
1.343e+0, -1.061e-3
1.344e+0, -8.033e-4
1.345e+0, -6.197e-4
1.346e+0, -3.739e-4
1.347e+0, -1.678e-4
1.348e+0, -1.030e-1
1.349e+0, -1.157e-1
1.350e+0, -1.354e-1
1.351e+0, -1.557e-1
1.352e+0, -1.750e-1
1.353e+0, -1.933e-1
1.354e+0, -2.107e-1
1.355e+0, -2.273e-1
1.356e+0, -2.432e-1
1.357e+0, -2.584e-1
1.358e+0, -2.730e-1
1.359e+0, -2.868e-1
1.360e+0, -3.008e-1
1.361e+0, -3.143e-1
1.362e+0, -3.271e-1
1.363e+0, -3.395e-1
1.364e+0, -3.511e-1
1.365e+0, -3.623e-1
1.366e+0, -3.731e-1
1.367e+0, -3.833e-1
1.368e+0, -3.932e-1
1.369e+0, -4.026e-1
1.370e+0, -4.118e-1
1.371e+0, -4.204e-1
1.372e+0, -4.289e-1
1.373e+0, -4.370e-1
1.374e+0, -4.448e-1
1.375e+0, -4.523e-1
1.376e+0, -4.597e-1
1.377e+0, -4.668e-1
1.378e+0, -4.737e-1
1.379e+0, -4.803e-1
1.380e+0, -4.868e-1
1.381e+0, -4.931e-1
1.382e+0, -4.992e-1
1.383e+0, -5.051e-1
1.384e+0, -5.109e-1
1.385e+0, -5.165e-1
1.386e+0, -5.219e-1
1.387e+0, -5.272e-1
1.388e+0, -5.323e-1
1.389e+0, -5.374e-1
1.390e+0, -5.422e-1
1.391e+0, -5.470e-1
1.392e+0, -5.516e-1
1.393e+0, -5.560e-1
1.394e+0, -5.603e-1
1.395e+0, -5.646e-1
1.396e+0, -5.688e-1
1.397e+0, -5.728e-1
1.398e+0, -5.767e-1
1.399e+0, -5.806e-1
1.400e+0, -5.844e-1
1.401e+0, -5.881e-1
1.402e+0, -5.917e-1
1.403e+0, -5.953e-1
1.404e+0, -5.987e-1
1.405e+0, -6.021e-1
1.406e+0, -6.055e-1
1.407e+0, -6.088e-1
1.408e+0, -6.120e-1
1.409e+0, -6.151e-1
1.410e+0, -6.182e-1
1.411e+0, -6.212e-1
1.412e+0, -6.242e-1
1.413e+0, -6.270e-1
1.414e+0, -6.299e-1
1.415e+0, -6.327e-1
1.416e+0, -6.355e-1
1.417e+0, -6.381e-1
1.418e+0, -6.408e-1
1.419e+0, -6.434e-1
1.420e+0, -6.460e-1
1.421e+0, -6.484e-1
1.422e+0, -6.510e-1
1.423e+0, -6.534e-1
1.424e+0, -6.557e-1
1.425e+0, -6.581e-1
1.426e+0, -6.604e-1
1.427e+0, -6.627e-1
1.428e+0, -6.650e-1
1.429e+0, -6.672e-1
1.430e+0, -6.693e-1
1.431e+0, -6.714e-1
1.432e+0, -6.735e-1
1.433e+0, -6.755e-1
1.434e+0, -6.775e-1
1.435e+0, -6.794e-1
1.436e+0, -6.814e-1
1.437e+0, -6.833e-1
1.438e+0, -6.851e-1
1.439e+0, -6.870e-1
1.440e+0, -6.888e-1
1.441e+0, -6.906e-1
1.442e+0, -6.924e-1
1.443e+0, -6.941e-1
1.444e+0, -6.959e-1
1.445e+0, -6.976e-1
1.446e+0, -6.994e-1
1.447e+0, -7.010e-1
1.448e+0, -7.028e-1
1.449e+0, -7.044e-1
1.450e+0, -7.061e-1
1.451e+0, -7.076e-1
1.452e+0, -7.093e-1
1.453e+0, -7.109e-1
1.454e+0, -7.125e-1
1.455e+0, -7.141e-1
1.456e+0, -7.156e-1
1.457e+0, -7.172e-1
1.458e+0, -7.188e-1
1.459e+0, -7.203e-1
1.460e+0, -7.220e-1
1.461e+0, -7.235e-1
1.462e+0, -7.252e-1
1.463e+0, -7.269e-1
1.464e+0, -7.287e-1
1.465e+0, -7.306e-1
1.466e+0, -7.324e-1
1.467e+0, -7.340e-1
1.468e+0, -7.351e-1
1.469e+0, -7.364e-1
1.470e+0, -7.377e-1
1.471e+0, -7.391e-1
1.472e+0, -7.405e-1
1.473e+0, -7.418e-1
1.474e+0, -7.431e-1
1.475e+0, -7.443e-1
1.476e+0, -7.455e-1
1.477e+0, -7.468e-1
1.478e+0, -7.480e-1
1.479e+0, -7.491e-1
1.480e+0, -7.502e-1
1.481e+0, -7.513e-1
1.482e+0, -7.523e-1
1.483e+0, -7.533e-1
1.484e+0, -7.543e-1
1.485e+0, -7.553e-1
1.486e+0, -7.563e-1
1.487e+0, -7.574e-1
1.488e+0, -7.584e-1
1.489e+0, -7.595e-1
1.490e+0, -7.606e-1
1.491e+0, -7.617e-1
1.492e+0, -7.627e-1
1.493e+0, -7.638e-1
1.494e+0, -7.649e-1
1.495e+0, -7.660e-1
1.496e+0, -7.671e-1
1.497e+0, -7.682e-1
1.498e+0, -7.694e-1
1.499e+0, -7.705e-1
1.500e+0, -7.716e-1
1.501e+0, -7.726e-1
1.502e+0, -7.737e-1
1.503e+0, -7.747e-1
1.504e+0, -7.756e-1
1.505e+0, -7.767e-1
1.506e+0, -7.776e-1
1.507e+0, -7.785e-1
1.508e+0, -7.794e-1
1.509e+0, -7.803e-1
1.510e+0, -7.813e-1
1.511e+0, -7.822e-1
1.512e+0, -7.831e-1
1.513e+0, -7.839e-1
1.514e+0, -7.848e-1
1.515e+0, -7.857e-1
1.516e+0, -7.866e-1
1.517e+0, -7.875e-1
1.518e+0, -7.884e-1
1.519e+0, -7.892e-1
1.520e+0, -7.901e-1
1.521e+0, -7.909e-1
1.522e+0, -7.918e-1
1.523e+0, -7.926e-1
1.524e+0, -7.935e-1
1.525e+0, -7.943e-1
1.526e+0, -7.951e-1
1.527e+0, -7.960e-1
1.528e+0, -7.968e-1
1.529e+0, -7.977e-1
1.530e+0, -7.984e-1
1.531e+0, -7.993e-1
1.532e+0, -8.001e-1
1.533e+0, -8.009e-1
1.534e+0, -8.017e-1
1.535e+0, -8.025e-1
1.536e+0, -8.033e-1
1.537e+0, -8.041e-1
1.538e+0, -8.049e-1
1.539e+0, -8.057e-1
1.540e+0, -8.064e-1
1.541e+0, -8.072e-1
1.542e+0, -8.080e-1
1.543e+0, -8.088e-1
1.544e+0, -8.095e-1
1.545e+0, -8.104e-1
1.546e+0, -8.111e-1
1.547e+0, -8.118e-1
1.548e+0, -8.126e-1
1.549e+0, -8.133e-1
1.550e+0, -8.141e-1
1.551e+0, -8.148e-1
1.552e+0, -8.156e-1
1.553e+0, -8.163e-1
1.554e+0, -8.170e-1
1.555e+0, -8.178e-1
1.556e+0, -8.185e-1
1.557e+0, -8.192e-1
1.558e+0, -8.199e-1
1.559e+0, -8.206e-1
1.560e+0, -8.213e-1
1.561e+0, -8.220e-1
1.562e+0, -8.227e-1
1.563e+0, -8.234e-1
1.564e+0, -8.241e-1
1.565e+0, -8.248e-1
1.566e+0, -8.255e-1
1.567e+0, -8.262e-1
1.568e+0, -8.268e-1
1.569e+0, -8.275e-1
1.570e+0, -8.281e-1
1.571e+0, -8.288e-1
1.572e+0, -8.294e-1
1.573e+0, -8.301e-1
1.574e+0, -8.307e-1
1.575e+0, -8.314e-1
1.576e+0, -8.320e-1
1.577e+0, -8.326e-1
1.578e+0, -8.333e-1
1.579e+0, -8.339e-1
1.580e+0, -8.345e-1
1.581e+0, -8.351e-1
1.582e+0, -8.357e-1
1.583e+0, -8.364e-1
1.584e+0, -8.369e-1
1.585e+0, -8.375e-1
1.586e+0, -8.381e-1
1.587e+0, -8.387e-1
1.588e+0, -8.394e-1
1.589e+0, -8.399e-1
1.590e+0, -8.405e-1
1.591e+0, -8.411e-1
1.592e+0, -8.417e-1
1.593e+0, -8.423e-1
1.594e+0, -8.429e-1
1.595e+0, -8.435e-1
1.596e+0, -8.440e-1
1.597e+0, -8.446e-1
1.598e+0, -8.452e-1
1.599e+0, -8.457e-1
1.600e+0, -8.463e-1
1.601e+0, -8.468e-1
1.602e+0, -8.474e-1
1.603e+0, -8.479e-1
1.604e+0, -8.484e-1
1.605e+0, -8.490e-1
1.606e+0, -8.495e-1
1.607e+0, -8.500e-1
1.608e+0, -8.505e-1
1.609e+0, -8.510e-1
1.610e+0, -8.516e-1
1.611e+0, -8.521e-1
1.612e+0, -8.526e-1
1.613e+0, -8.530e-1
1.614e+0, -8.535e-1
1.615e+0, -8.540e-1
1.616e+0, -8.545e-1
1.617e+0, -8.550e-1
1.618e+0, -8.555e-1
1.619e+0, -8.560e-1
1.620e+0, -8.564e-1
1.621e+0, -8.569e-1
1.622e+0, -8.574e-1
1.623e+0, -8.579e-1
1.624e+0, -8.584e-1
1.625e+0, -8.588e-1
1.626e+0, -8.594e-1
1.627e+0, -8.598e-1
1.628e+0, -8.603e-1
1.629e+0, -8.608e-1
1.630e+0, -8.612e-1
1.631e+0, -8.617e-1
1.632e+0, -8.622e-1
1.633e+0, -8.627e-1
1.634e+0, -8.631e-1
1.635e+0, -8.636e-1
1.636e+0, -8.640e-1
1.637e+0, -8.645e-1
1.638e+0, -8.650e-1
1.639e+0, -8.654e-1
1.640e+0, -8.659e-1
1.641e+0, -8.664e-1
1.642e+0, -8.668e-1
1.643e+0, -8.673e-1
1.644e+0, -8.677e-1
1.645e+0, -8.682e-1
1.646e+0, -8.687e-1
1.647e+0, -8.692e-1
1.648e+0, -8.696e-1
1.649e+0, -8.700e-1
1.650e+0, -8.705e-1
1.651e+0, -8.710e-1
1.652e+0, -8.715e-1
1.653e+0, -8.719e-1
1.654e+0, -8.723e-1
1.655e+0, -8.728e-1
1.656e+0, -8.732e-1
1.657e+0, -8.737e-1
1.658e+0, -8.741e-1
1.659e+0, -8.746e-1
1.660e+0, -8.750e-1
1.661e+0, -8.754e-1
1.662e+0, -8.759e-1
1.663e+0, -8.763e-1
1.664e+0, -8.768e-1
1.665e+0, -8.772e-1
1.666e+0, -8.777e-1
1.667e+0, -8.781e-1
1.668e+0, -8.785e-1
1.669e+0, -8.789e-1
1.670e+0, -8.794e-1
1.671e+0, -8.798e-1
1.672e+0, -8.802e-1
1.673e+0, -8.806e-1
1.674e+0, -8.811e-1
1.675e+0, -8.815e-1
1.676e+0, -8.820e-1
1.677e+0, -8.824e-1
1.678e+0, -8.828e-1
1.679e+0, -8.832e-1
1.680e+0, -8.836e-1
1.681e+0, -8.840e-1
1.682e+0, -8.844e-1
1.683e+0, -8.849e-1
1.684e+0, -8.852e-1
1.685e+0, -8.857e-1
1.686e+0, -8.861e-1
1.687e+0, -8.865e-1
1.688e+0, -8.869e-1
1.689e+0, -8.873e-1
1.690e+0, -8.878e-1
1.691e+0, -8.881e-1
1.692e+0, -8.885e-1
1.693e+0, -8.889e-1
1.694e+0, -8.893e-1
1.695e+0, -8.898e-1
1.696e+0, -8.901e-1
1.697e+0, -8.906e-1
1.698e+0, -8.909e-1
1.699e+0, -8.913e-1
1.700e+0, -8.917e-1
1.701e+0, -8.922e-1
1.702e+0, -8.925e-1
1.703e+0, -8.929e-1
1.704e+0, -8.933e-1
1.705e+0, -8.937e-1
1.706e+0, -8.941e-1
1.707e+0, -8.944e-1
1.708e+0, -8.949e-1
1.709e+0, -8.953e-1
1.710e+0, -8.957e-1
1.711e+0, -8.960e-1
1.712e+0, -8.964e-1
1.713e+0, -8.968e-1
1.714e+0, -8.972e-1
1.715e+0, -8.975e-1
1.716e+0, -8.980e-1
1.717e+0, -8.983e-1
1.718e+0, -8.987e-1
1.719e+0, -8.991e-1
1.720e+0, -8.995e-1
1.721e+0, -8.999e-1
1.722e+0, -9.002e-1
1.723e+0, -9.006e-1
1.724e+0, -9.009e-1
1.725e+0, -9.013e-1
1.726e+0, -9.017e-1
1.727e+0, -9.021e-1
1.728e+0, -9.024e-1
1.729e+0, -9.028e-1
1.730e+0, -9.032e-1
1.731e+0, -9.035e-1
1.732e+0, -9.039e-1
1.733e+0, -9.043e-1
1.734e+0, -9.046e-1
1.735e+0, -9.050e-1
1.736e+0, -9.053e-1
1.737e+0, -9.057e-1
1.738e+0, -9.060e-1
1.739e+0, -9.064e-1
1.740e+0, -9.068e-1
1.741e+0, -9.071e-1
1.742e+0, -9.075e-1
1.743e+0, -9.078e-1
1.744e+0, -9.082e-1
1.745e+0, -9.085e-1
1.746e+0, -9.089e-1
1.747e+0, -9.092e-1
1.748e+0, -9.096e-1
1.749e+0, -9.100e-1
1.750e+0, -9.103e-1
1.751e+0, -9.106e-1
1.752e+0, -9.110e-1
1.753e+0, -9.113e-1
1.754e+0, -9.117e-1
1.755e+0, -9.120e-1
1.756e+0, -9.123e-1
1.757e+0, -9.127e-1
1.758e+0, -9.130e-1
1.759e+0, -9.134e-1
1.760e+0, -9.137e-1
1.761e+0, -9.141e-1
1.762e+0, -9.144e-1
1.763e+0, -9.147e-1
1.764e+0, -9.151e-1
1.765e+0, -9.154e-1
1.766e+0, -9.158e-1
1.767e+0, -9.161e-1
1.768e+0, -9.165e-1
1.769e+0, -9.168e-1
1.770e+0, -9.171e-1
1.771e+0, -9.174e-1
1.772e+0, -9.178e-1
1.773e+0, -9.181e-1
1.774e+0, -9.184e-1
1.775e+0, -9.188e-1
1.776e+0, -9.191e-1
1.777e+0, -9.194e-1
1.778e+0, -9.198e-1
1.779e+0, -9.201e-1
1.780e+0, -9.204e-1
1.781e+0, -9.207e-1
1.782e+0, -9.211e-1
1.783e+0, -9.214e-1
1.784e+0, -9.217e-1
1.785e+0, -9.220e-1
1.786e+0, -9.223e-1
1.787e+0, -9.227e-1
1.788e+0, -9.230e-1
1.789e+0, -9.233e-1
1.790e+0, -9.236e-1
1.791e+0, -9.240e-1
1.792e+0, -9.243e-1
1.793e+0, -9.245e-1
1.794e+0, -9.249e-1
1.795e+0, -9.252e-1
1.796e+0, -9.255e-1
1.797e+0, -9.258e-1
1.798e+0, -9.261e-1
1.799e+0, -9.265e-1
1.800e+0, -9.268e-1
1.801e+0, -9.271e-1
1.802e+0, -9.274e-1
1.803e+0, -9.277e-1
1.804e+0, -9.281e-1
1.805e+0, -9.284e-1
1.806e+0, -9.287e-1
1.807e+0, -9.290e-1
1.808e+0, -9.293e-1
1.809e+0, -9.296e-1
1.810e+0, -9.299e-1
1.811e+0, -9.302e-1
1.812e+0, -9.305e-1
1.813e+0, -9.308e-1
1.814e+0, -9.311e-1
1.815e+0, -9.314e-1
1.816e+0, -9.317e-1
1.817e+0, -9.320e-1
1.818e+0, -9.323e-1
1.819e+0, -9.326e-1
1.820e+0, -9.329e-1
1.821e+0, -9.332e-1
1.822e+0, -9.335e-1
1.823e+0, -9.339e-1
1.824e+0, -9.341e-1
1.825e+0, -9.345e-1
1.826e+0, -9.347e-1
1.827e+0, -9.350e-1
1.828e+0, -9.353e-1
1.829e+0, -9.356e-1
1.830e+0, -9.360e-1
1.831e+0, -9.362e-1
1.832e+0, -9.365e-1
1.833e+0, -9.368e-1
1.834e+0, -9.371e-1
1.835e+0, -9.374e-1
1.836e+0, -9.377e-1
1.837e+0, -9.380e-1
1.838e+0, -9.383e-1
1.839e+0, -9.386e-1
1.840e+0, -9.389e-1
1.841e+0, -9.392e-1
1.842e+0, -9.395e-1
1.843e+0, -9.397e-1
1.844e+0, -9.401e-1
1.845e+0, -9.403e-1
1.846e+0, -9.406e-1
1.847e+0, -9.409e-1
1.848e+0, -9.412e-1
1.849e+0, -9.415e-1
1.850e+0, -9.417e-1
1.851e+0, -9.420e-1
1.852e+0, -9.423e-1
1.853e+0, -9.426e-1
1.854e+0, -9.429e-1
1.855e+0, -9.432e-1
1.856e+0, -9.435e-1
1.857e+0, -9.437e-1
1.858e+0, -9.440e-1
1.859e+0, -9.443e-1
1.860e+0, -9.446e-1
1.861e+0, -9.449e-1
1.862e+0, -9.451e-1
1.863e+0, -9.454e-1
1.864e+0, -9.457e-1
1.865e+0, -9.459e-1
1.866e+0, -9.462e-1
1.867e+0, -9.465e-1
1.868e+0, -9.468e-1
1.869e+0, -9.471e-1
1.870e+0, -9.474e-1
1.871e+0, -9.476e-1
1.872e+0, -9.479e-1
1.873e+0, -9.482e-1
1.874e+0, -9.484e-1
1.875e+0, -9.488e-1
1.876e+0, -9.490e-1
1.877e+0, -9.493e-1
1.878e+0, -9.495e-1
1.879e+0, -9.498e-1
1.880e+0, -9.501e-1
1.881e+0, -9.504e-1
1.882e+0, -9.507e-1
1.883e+0, -9.509e-1
1.884e+0, -9.512e-1
1.885e+0, -9.514e-1
1.886e+0, -9.517e-1
1.887e+0, -9.520e-1
1.888e+0, -9.523e-1
1.889e+0, -9.525e-1
1.890e+0, -9.528e-1
1.891e+0, -9.531e-1
1.892e+0, -9.534e-1
1.893e+0, -9.536e-1
1.894e+0, -9.539e-1
1.895e+0, -9.541e-1
1.896e+0, -9.544e-1
1.897e+0, -9.546e-1
1.898e+0, -9.549e-1
1.899e+0, -9.552e-1
1.900e+0, -9.555e-1
1.901e+0, -9.558e-1
1.902e+0, -9.560e-1
1.903e+0, -9.562e-1
1.904e+0, -9.565e-1
1.905e+0, -9.568e-1
1.906e+0, -9.571e-1
1.907e+0, -9.573e-1
1.908e+0, -9.576e-1
1.909e+0, -9.578e-1
1.910e+0, -9.581e-1
1.911e+0, -9.584e-1
1.912e+0, -9.586e-1
1.913e+0, -9.589e-1
1.914e+0, -9.591e-1
1.915e+0, -9.594e-1
1.916e+0, -9.596e-1
1.917e+0, -9.599e-1
1.918e+0, -9.602e-1
1.919e+0, -9.604e-1
1.920e+0, -9.607e-1
1.921e+0, -9.609e-1
1.922e+0, -9.611e-1
1.923e+0, -9.614e-1
1.924e+0, -9.617e-1
1.925e+0, -9.620e-1
1.926e+0, -9.621e-1
1.927e+0, -9.624e-1
1.928e+0, -9.627e-1
1.929e+0, -9.629e-1
1.930e+0, -9.632e-1
1.931e+0, -9.634e-1
1.932e+0, -9.637e-1
1.933e+0, -9.639e-1
1.934e+0, -9.642e-1
1.935e+0, -9.644e-1
1.936e+0, -9.647e-1
1.937e+0, -9.650e-1
1.938e+0, -9.652e-1
1.939e+0, -9.655e-1
1.940e+0, -9.657e-1
1.941e+0, -9.659e-1
1.942e+0, -9.662e-1
1.943e+0, -9.664e-1
1.944e+0, -9.667e-1
1.945e+0, -9.669e-1
1.946e+0, -9.672e-1
1.947e+0, -9.674e-1
1.948e+0, -9.677e-1
1.949e+0, -9.680e-1
1.950e+0, -9.682e-1
1.951e+0, -9.685e-1
1.952e+0, -9.686e-1
1.953e+0, -9.689e-1
1.954e+0, -9.691e-1
1.955e+0, -9.694e-1
1.956e+0, -9.697e-1
1.957e+0, -9.699e-1
1.958e+0, -9.701e-1
1.959e+0, -9.704e-1
1.960e+0, -9.706e-1
1.961e+0, -9.708e-1
1.962e+0, -9.711e-1
1.963e+0, -9.714e-1
1.964e+0, -9.716e-1
1.965e+0, -9.718e-1
1.966e+0, -9.721e-1
1.967e+0, -9.723e-1
1.968e+0, -9.726e-1
1.969e+0, -9.728e-1
1.970e+0, -9.730e-1
1.971e+0, -9.733e-1
1.972e+0, -9.735e-1
1.973e+0, -9.737e-1
1.974e+0, -9.739e-1
1.975e+0, -9.742e-1
1.976e+0, -9.744e-1
1.977e+0, -9.747e-1
1.978e+0, -9.749e-1
1.979e+0, -9.751e-1
1.980e+0, -9.754e-1
1.981e+0, -9.757e-1
1.982e+0, -9.759e-1
1.983e+0, -9.761e-1
1.984e+0, -9.763e-1
1.985e+0, -9.766e-1
1.986e+0, -9.768e-1
1.987e+0, -9.771e-1
1.988e+0, -9.773e-1
1.989e+0, -9.776e-1
1.990e+0, -9.778e-1
1.991e+0, -9.780e-1
1.992e+0, -9.782e-1
1.993e+0, -9.784e-1
1.994e+0, -9.787e-1
1.995e+0, -9.790e-1
1.996e+0, -9.792e-1
1.997e+0, -9.794e-1
1.998e+0, -9.796e-1
1.999e+0, -9.799e-1
2.000e+0, -9.801e-1
2.001e+0, -9.804e-1
2.002e+0, -9.805e-1
2.003e+0, -9.808e-1
2.004e+0, -9.810e-1
2.005e+0, -9.812e-1
2.006e+0, -9.815e-1
2.007e+0, -9.817e-1
2.008e+0, -9.819e-1
2.009e+0, -9.822e-1
2.010e+0, -9.824e-1
2.011e+0, -9.826e-1
2.012e+0, -9.828e-1
2.013e+0, -9.831e-1
2.014e+0, -9.833e-1
2.015e+0, -9.836e-1
2.016e+0, -9.837e-1
2.017e+0, -9.840e-1
2.018e+0, -9.842e-1
2.019e+0, -9.844e-1
2.020e+0, -9.847e-1
2.021e+0, -9.849e-1
2.022e+0, -9.851e-1
2.023e+0, -9.853e-1
2.024e+0, -9.855e-1
2.025e+0, -9.858e-1
2.026e+0, -9.860e-1
2.027e+0, -9.862e-1
2.028e+0, -9.864e-1
2.029e+0, -9.866e-1
2.030e+0, -9.869e-1
2.031e+0, -9.871e-1
2.032e+0, -9.874e-1
2.033e+0, -9.875e-1
2.034e+0, -9.878e-1
2.035e+0, -9.880e-1
2.036e+0, -9.882e-1
2.037e+0, -9.885e-1
2.038e+0, -9.887e-1
2.039e+0, -9.889e-1
2.040e+0, -9.891e-1
2.041e+0, -9.893e-1
2.042e+0, -9.895e-1
2.043e+0, -9.898e-1
2.044e+0, -9.900e-1
2.045e+0, -9.902e-1
2.046e+0, -9.904e-1
2.047e+0, -9.906e-1
2.048e+0, -9.908e-1
2.049e+0, -9.911e-1
2.050e+0, -9.913e-1
2.051e+0, -9.915e-1
2.052e+0, -9.917e-1
2.053e+0, -9.919e-1
2.054e+0, -9.921e-1
2.055e+0, -9.924e-1
2.056e+0, -9.926e-1
2.057e+0, -9.928e-1
2.058e+0, -9.931e-1
2.059e+0, -9.932e-1
2.060e+0, -9.934e-1
2.061e+0, -9.937e-1
2.062e+0, -9.939e-1
2.063e+0, -9.941e-1
2.064e+0, -9.943e-1
2.065e+0, -9.945e-1
2.066e+0, -9.947e-1
2.067e+0, -9.950e-1
2.068e+0, -9.952e-1
2.069e+0, -9.954e-1
2.070e+0, -9.957e-1
2.071e+0, -9.959e-1
2.072e+0, -9.961e-1
2.073e+0, -9.963e-1
2.074e+0, -9.965e-1
2.075e+0, -9.967e-1
2.076e+0, -9.969e-1
2.077e+0, -9.971e-1
2.078e+0, -9.973e-1
2.079e+0, -9.975e-1
2.080e+0, -9.978e-1
2.081e+0, -9.980e-1
2.082e+0, -9.982e-1
2.083e+0, -9.984e-1
2.084e+0, -9.986e-1
2.085e+0, -9.988e-1
2.086e+0, -9.990e-1
2.087e+0, -9.992e-1
2.088e+0, -9.995e-1
2.089e+0, -9.997e-1
2.090e+0, -9.999e-1
2.091e+0, -8.284e-1
2.092e+0, -8.015e-1
2.093e+0, -7.806e-1
2.094e+0, -7.631e-1
2.095e+0, -7.481e-1
2.096e+0, -7.348e-1
2.097e+0, -7.229e-1
2.098e+0, -7.115e-1
2.099e+0, -7.007e-1
2.100e+0, -6.908e-1
2.101e+0, -6.817e-1
2.102e+0, -6.729e-1
2.103e+0, -6.643e-1
2.104e+0, -6.561e-1
2.105e+0, -6.483e-1
2.106e+0, -6.409e-1
2.107e+0, -6.338e-1
2.108e+0, -6.271e-1
2.109e+0, -6.206e-1
2.110e+0, -6.144e-1
2.111e+0, -6.085e-1
2.112e+0, -6.028e-1
2.113e+0, -5.974e-1
2.114e+0, -5.922e-1
2.115e+0, -5.871e-1
2.116e+0, -5.822e-1
2.117e+0, -5.774e-1
2.118e+0, -5.726e-1
2.119e+0, -5.680e-1
2.120e+0, -5.634e-1
2.121e+0, -5.590e-1
2.122e+0, -5.548e-1
2.123e+0, -5.506e-1
2.124e+0, -5.465e-1
2.125e+0, -5.424e-1
2.126e+0, -5.385e-1
2.127e+0, -5.347e-1
2.128e+0, -5.309e-1
2.129e+0, -5.272e-1
2.130e+0, -5.236e-1
2.131e+0, -5.201e-1
2.132e+0, -5.166e-1
2.133e+0, -5.133e-1
2.134e+0, -5.100e-1
2.135e+0, -5.067e-1
2.136e+0, -5.035e-1
2.137e+0, -5.004e-1
2.138e+0, -4.973e-1
2.139e+0, -4.942e-1
2.140e+0, -4.913e-1
2.141e+0, -4.883e-1
2.142e+0, -4.854e-1
2.143e+0, -4.827e-1
2.144e+0, -4.799e-1
2.145e+0, -4.771e-1
2.146e+0, -4.745e-1
2.147e+0, -4.718e-1
2.148e+0, -4.692e-1
2.149e+0, -4.667e-1
2.150e+0, -4.641e-1
2.151e+0, -4.616e-1
2.152e+0, -4.592e-1
2.153e+0, -4.567e-1
2.154e+0, -4.543e-1
2.155e+0, -4.520e-1
2.156e+0, -4.497e-1
2.157e+0, -4.474e-1
2.158e+0, -4.451e-1
2.159e+0, -4.429e-1
2.160e+0, -4.407e-1
2.161e+0, -4.385e-1
2.162e+0, -4.364e-1
2.163e+0, -4.343e-1
2.164e+0, -4.322e-1
2.165e+0, -4.301e-1
2.166e+0, -4.281e-1
2.167e+0, -4.260e-1
2.168e+0, -4.240e-1
2.169e+0, -4.221e-1
2.170e+0, -4.201e-1
2.171e+0, -4.182e-1
2.172e+0, -4.162e-1
2.173e+0, -4.143e-1
2.174e+0, -4.125e-1
2.175e+0, -4.106e-1
2.176e+0, -4.088e-1
2.177e+0, -4.070e-1
2.178e+0, -4.052e-1
2.179e+0, -4.034e-1
2.180e+0, -4.017e-1
2.181e+0, -4.000e-1
2.182e+0, -3.982e-1
2.183e+0, -3.965e-1
2.184e+0, -3.949e-1
2.185e+0, -3.932e-1
2.186e+0, -3.916e-1
2.187e+0, -3.899e-1
2.188e+0, -3.883e-1
2.189e+0, -3.867e-1
2.190e+0, -3.851e-1
2.191e+0, -3.835e-1
2.192e+0, -3.819e-1
2.193e+0, -3.804e-1
2.194e+0, -3.788e-1
2.195e+0, -3.774e-1
2.196e+0, -3.758e-1
2.197e+0, -3.743e-1
2.198e+0, -3.728e-1
2.199e+0, -3.714e-1
2.200e+0, -3.700e-1
2.201e+0, -3.685e-1
2.202e+0, -3.670e-1
2.203e+0, -3.656e-1
2.204e+0, -3.642e-1
2.205e+0, -3.628e-1
2.206e+0, -3.614e-1
2.207e+0, -3.601e-1
2.208e+0, -3.587e-1
2.209e+0, -3.574e-1
2.210e+0, -3.560e-1
2.211e+0, -3.546e-1
2.212e+0, -3.534e-1
2.213e+0, -3.520e-1
2.214e+0, -3.508e-1
2.215e+0, -3.494e-1
2.216e+0, -3.481e-1
2.217e+0, -3.469e-1
2.218e+0, -3.456e-1
2.219e+0, -3.443e-1
2.220e+0, -3.431e-1
2.221e+0, -3.419e-1
2.222e+0, -3.406e-1
2.223e+0, -3.394e-1
2.224e+0, -3.382e-1
2.225e+0, -3.370e-1
2.226e+0, -3.358e-1
2.227e+0, -3.346e-1
2.228e+0, -3.334e-1
2.229e+0, -3.322e-1
2.230e+0, -3.311e-1
2.231e+0, -3.300e-1
2.232e+0, -3.288e-1
2.233e+0, -3.276e-1
2.234e+0, -3.265e-1
2.235e+0, -3.254e-1
2.236e+0, -3.242e-1
2.237e+0, -3.231e-1
2.238e+0, -3.221e-1
2.239e+0, -3.209e-1
2.240e+0, -3.198e-1
2.241e+0, -3.188e-1
2.242e+0, -3.177e-1
2.243e+0, -3.166e-1
2.244e+0, -3.155e-1
2.245e+0, -3.145e-1
2.246e+0, -3.135e-1
2.247e+0, -3.124e-1
2.248e+0, -3.114e-1
2.249e+0, -3.103e-1
2.250e+0, -3.093e-1
2.251e+0, -3.082e-1
2.252e+0, -3.072e-1
2.253e+0, -3.062e-1
2.254e+0, -3.052e-1
2.255e+0, -3.042e-1
2.256e+0, -3.032e-1
2.257e+0, -3.022e-1
2.258e+0, -3.012e-1
2.259e+0, -3.002e-1
2.260e+0, -2.992e-1
2.261e+0, -2.983e-1
2.262e+0, -2.973e-1
2.263e+0, -2.963e-1
2.264e+0, -2.954e-1
2.265e+0, -2.944e-1
2.266e+0, -2.934e-1
2.267e+0, -2.925e-1
2.268e+0, -2.915e-1
2.269e+0, -2.906e-1
2.270e+0, -2.896e-1
2.271e+0, -2.887e-1
2.272e+0, -2.878e-1
2.273e+0, -2.868e-1
2.274e+0, -2.859e-1
2.275e+0, -2.850e-1
2.276e+0, -2.841e-1
2.277e+0, -2.831e-1
2.278e+0, -2.822e-1
2.279e+0, -2.813e-1
2.280e+0, -2.804e-1
2.281e+0, -2.796e-1
2.282e+0, -2.787e-1
2.283e+0, -2.778e-1
2.284e+0, -2.769e-1
2.285e+0, -2.761e-1
2.286e+0, -2.752e-1
2.287e+0, -2.743e-1
2.288e+0, -2.736e-1
2.289e+0, -2.727e-1
2.290e+0, -2.719e-1
2.291e+0, -2.710e-1
2.292e+0, -2.702e-1
2.293e+0, -2.693e-1
2.294e+0, -2.685e-1
2.295e+0, -2.677e-1
2.296e+0, -2.669e-1
2.297e+0, -2.661e-1
2.298e+0, -2.653e-1
2.299e+0, -2.645e-1
2.300e+0, -2.637e-1
2.301e+0, -2.629e-1
2.302e+0, -2.621e-1
2.303e+0, -2.614e-1
2.304e+0, -2.607e-1
2.305e+0, -2.600e-1
2.306e+0, -2.593e-1
2.307e+0, -2.586e-1
2.308e+0, -2.579e-1
2.309e+0, -2.572e-1
2.310e+0, -2.565e-1
2.311e+0, -2.558e-1
2.312e+0, -2.552e-1
2.313e+0, -2.544e-1
2.314e+0, -2.538e-1
2.315e+0, -2.531e-1
2.316e+0, -2.523e-1
2.317e+0, -2.516e-1
2.318e+0, -2.509e-1
2.319e+0, -2.502e-1
2.320e+0, -2.495e-1
2.321e+0, -2.488e-1
2.322e+0, -2.481e-1
2.323e+0, -2.474e-1
2.324e+0, -2.467e-1
2.325e+0, -2.460e-1
2.326e+0, -2.454e-1
2.327e+0, -2.446e-1
2.328e+0, -2.439e-1
2.329e+0, -2.432e-1
2.330e+0, -2.425e-1
2.331e+0, -2.418e-1
2.332e+0, -2.411e-1
2.333e+0, -2.405e-1
2.334e+0, -2.398e-1
2.335e+0, -2.391e-1
2.336e+0, -2.384e-1
2.337e+0, -2.377e-1
2.338e+0, -2.370e-1
2.339e+0, -2.363e-1
2.340e+0, -2.357e-1
2.341e+0, -2.350e-1
2.342e+0, -2.343e-1
2.343e+0, -2.336e-1
2.344e+0, -2.329e-1
2.345e+0, -2.323e-1
2.346e+0, -2.316e-1
2.347e+0, -2.309e-1
2.348e+0, -2.302e-1
2.349e+0, -2.295e-1
2.350e+0, -2.288e-1
2.351e+0, -2.281e-1
2.352e+0, -2.274e-1
2.353e+0, -2.266e-1
2.354e+0, -2.259e-1
2.355e+0, -2.251e-1
2.356e+0, -2.244e-1
2.357e+0, -2.237e-1
2.358e+0, -2.229e-1
2.359e+0, -2.222e-1
2.360e+0, -2.215e-1
2.361e+0, -2.208e-1
2.362e+0, -2.202e-1
2.363e+0, -2.195e-1
2.364e+0, -2.189e-1
2.365e+0, -2.183e-1
2.366e+0, -2.178e-1
2.367e+0, -2.172e-1
2.368e+0, -2.166e-1
2.369e+0, -2.161e-1
2.370e+0, -2.155e-1
2.371e+0, -2.149e-1
2.372e+0, -2.142e-1
2.373e+0, -2.136e-1
2.374e+0, -2.130e-1
2.375e+0, -2.124e-1
2.376e+0, -2.118e-1
2.377e+0, -2.113e-1
2.378e+0, -2.107e-1
2.379e+0, -2.101e-1
2.380e+0, -2.096e-1
2.381e+0, -2.090e-1
2.382e+0, -2.084e-1
2.383e+0, -2.079e-1
2.384e+0, -2.073e-1
2.385e+0, -2.068e-1
2.386e+0, -2.062e-1
2.387e+0, -2.057e-1
2.388e+0, -2.052e-1
2.389e+0, -2.046e-1
2.390e+0, -2.041e-1
2.391e+0, -2.036e-1
2.392e+0, -2.030e-1
2.393e+0, -2.026e-1
2.394e+0, -2.021e-1
2.395e+0, -2.016e-1
2.396e+0, -2.011e-1
2.397e+0, -2.006e-1
2.398e+0, -2.001e-1
2.399e+0, -1.996e-1
2.400e+0, -1.991e-1
2.401e+0, -1.986e-1
2.402e+0, -1.981e-1
2.403e+0, -1.975e-1
2.404e+0, -1.970e-1
2.405e+0, -1.965e-1
2.406e+0, -1.960e-1
2.407e+0, -1.955e-1
2.408e+0, -1.949e-1
2.409e+0, -1.944e-1
2.410e+0, -1.939e-1
2.411e+0, -1.933e-1
2.412e+0, -1.929e-1
2.413e+0, -1.923e-1
2.414e+0, -1.918e-1
2.415e+0, -1.912e-1
2.416e+0, -1.907e-1
2.417e+0, -1.902e-1
2.418e+0, -1.897e-1
2.419e+0, -1.892e-1
2.420e+0, -1.886e-1
2.421e+0, -1.881e-1
2.422e+0, -1.876e-1
2.423e+0, -1.871e-1
2.424e+0, -1.865e-1
2.425e+0, -1.860e-1
2.426e+0, -1.856e-1
2.427e+0, -1.850e-1
2.428e+0, -1.845e-1
2.429e+0, -1.840e-1
2.430e+0, -1.835e-1
2.431e+0, -1.830e-1
2.432e+0, -1.824e-1
2.433e+0, -1.820e-1
2.434e+0, -1.814e-1
2.435e+0, -1.809e-1
2.436e+0, -1.804e-1
2.437e+0, -1.799e-1
2.438e+0, -1.794e-1
2.439e+0, -1.789e-1
2.440e+0, -1.784e-1
2.441e+0, -1.779e-1
2.442e+0, -1.774e-1
2.443e+0, -1.769e-1
2.444e+0, -1.764e-1
2.445e+0, -1.759e-1
2.446e+0, -1.754e-1
2.447e+0, -1.749e-1
2.448e+0, -1.744e-1
2.449e+0, -1.739e-1
2.450e+0, -1.734e-1
2.451e+0, -1.729e-1
2.452e+0, -1.724e-1
2.453e+0, -1.719e-1
2.454e+0, -1.714e-1
2.455e+0, -1.709e-1
2.456e+0, -1.704e-1
2.457e+0, -1.700e-1
2.458e+0, -1.694e-1
2.459e+0, -1.689e-1
2.460e+0, -1.685e-1
2.461e+0, -1.680e-1
2.462e+0, -1.675e-1
2.463e+0, -1.670e-1
2.464e+0, -1.666e-1
2.465e+0, -1.661e-1
2.466e+0, -1.656e-1
2.467e+0, -1.651e-1
2.468e+0, -1.646e-1
2.469e+0, -1.642e-1
2.470e+0, -1.637e-1
2.471e+0, -1.632e-1
2.472e+0, -1.627e-1
2.473e+0, -1.623e-1
2.474e+0, -1.618e-1
2.475e+0, -1.613e-1
2.476e+0, -1.609e-1
2.477e+0, -1.604e-1
2.478e+0, -1.599e-1
2.479e+0, -1.594e-1
2.480e+0, -1.590e-1
2.481e+0, -1.585e-1
2.482e+0, -1.580e-1
2.483e+0, -1.576e-1
2.484e+0, -1.571e-1
2.485e+0, -1.567e-1
2.486e+0, -1.562e-1
2.487e+0, -1.557e-1
2.488e+0, -1.553e-1
2.489e+0, -1.548e-1
2.490e+0, -1.544e-1
2.491e+0, -1.539e-1
2.492e+0, -1.534e-1
2.493e+0, -1.529e-1
2.494e+0, -1.525e-1
2.495e+0, -1.520e-1
2.496e+0, -1.515e-1
2.497e+0, -1.511e-1
2.498e+0, -1.506e-1
2.499e+0, -1.502e-1
2.500e+0, -1.497e-1
2.501e+0, -1.493e-1
2.502e+0, -1.488e-1
2.503e+0, -1.483e-1
2.504e+0, -1.479e-1
2.505e+0, -1.475e-1
2.506e+0, -1.470e-1
2.507e+0, -1.466e-1
2.508e+0, -1.461e-1
2.509e+0, -1.457e-1
2.510e+0, -1.452e-1
2.511e+0, -1.448e-1
2.512e+0, -1.444e-1
2.513e+0, -1.439e-1
2.514e+0, -1.435e-1
2.515e+0, -1.430e-1
2.516e+0, -1.426e-1
2.517e+0, -1.421e-1
2.518e+0, -1.417e-1
2.519e+0, -1.412e-1
2.520e+0, -1.408e-1
2.521e+0, -1.404e-1
2.522e+0, -1.399e-1
2.523e+0, -1.395e-1
2.524e+0, -1.390e-1
2.525e+0, -1.386e-1
2.526e+0, -1.382e-1
2.527e+0, -1.377e-1
2.528e+0, -1.373e-1
2.529e+0, -1.368e-1
2.530e+0, -1.364e-1
2.531e+0, -1.360e-1
2.532e+0, -1.355e-1
2.533e+0, -1.351e-1
2.534e+0, -1.347e-1
2.535e+0, -1.342e-1
2.536e+0, -1.338e-1
2.537e+0, -1.334e-1
2.538e+0, -1.330e-1
2.539e+0, -1.325e-1
2.540e+0, -1.321e-1
2.541e+0, -1.317e-1
2.542e+0, -1.312e-1
2.543e+0, -1.308e-1
2.544e+0, -1.304e-1
2.545e+0, -1.300e-1
2.546e+0, -1.295e-1
2.547e+0, -1.291e-1
2.548e+0, -1.287e-1
2.549e+0, -1.283e-1
2.550e+0, -1.279e-1
2.551e+0, -1.274e-1
2.552e+0, -1.270e-1
2.553e+0, -1.266e-1
2.554e+0, -1.261e-1
2.555e+0, -1.257e-1
2.556e+0, -1.253e-1
2.557e+0, -1.249e-1
2.558e+0, -1.245e-1
2.559e+0, -1.241e-1
2.560e+0, -1.237e-1
2.561e+0, -1.233e-1
2.562e+0, -1.228e-1
2.563e+0, -1.224e-1
2.564e+0, -1.220e-1
2.565e+0, -1.216e-1
2.566e+0, -1.212e-1
2.567e+0, -1.208e-1
2.568e+0, -1.203e-1
2.569e+0, -1.200e-1
2.570e+0, -1.195e-1
2.571e+0, -1.192e-1
2.572e+0, -1.187e-1
2.573e+0, -1.183e-1
2.574e+0, -1.179e-1
2.575e+0, -1.175e-1
2.576e+0, -1.171e-1
2.577e+0, -1.167e-1
2.578e+0, -1.163e-1
2.579e+0, -1.159e-1
2.580e+0, -1.155e-1
2.581e+0, -1.151e-1
2.582e+0, -1.146e-1
2.583e+0, -1.143e-1
2.584e+0, -1.138e-1
2.585e+0, -1.134e-1
2.586e+0, -1.130e-1
2.587e+0, -1.126e-1
2.588e+0, -1.122e-1
2.589e+0, -1.118e-1
2.590e+0, -1.114e-1
2.591e+0, -1.110e-1
2.592e+0, -1.106e-1
2.593e+0, -1.102e-1
2.594e+0, -1.098e-1
2.595e+0, -1.094e-1
2.596e+0, -1.090e-1
2.597e+0, -1.086e-1
2.598e+0, -1.082e-1
2.599e+0, -1.078e-1
2.600e+0, -1.074e-1
2.601e+0, -1.070e-1
2.602e+0, -1.066e-1
2.603e+0, -1.062e-1
2.604e+0, -1.058e-1
2.605e+0, -1.054e-1
2.606e+0, -1.050e-1
2.607e+0, -1.047e-1
2.608e+0, -1.042e-1
2.609e+0, -1.039e-1
2.610e+0, -1.035e-1
2.611e+0, -1.031e-1
2.612e+0, -1.027e-1
2.613e+0, -1.023e-1
2.614e+0, -1.019e-1
2.615e+0, -1.015e-1
2.616e+0, -1.011e-1
2.617e+0, -1.007e-1
2.618e+0, -1.004e-1
2.619e+0, -9.996e-2
2.620e+0, -9.956e-2
2.621e+0, -9.922e-2
2.622e+0, -9.882e-2
2.623e+0, -9.846e-2
2.624e+0, -9.804e-2
2.625e+0, -9.764e-2
2.626e+0, -9.731e-2
2.627e+0, -9.689e-2
2.628e+0, -9.656e-2
2.629e+0, -9.615e-2
2.630e+0, -9.575e-2
2.631e+0, -9.540e-2
2.632e+0, -9.500e-2
2.633e+0, -9.463e-2
2.634e+0, -9.422e-2
2.635e+0, -9.382e-2
2.636e+0, -9.345e-2
2.637e+0, -9.305e-2
2.638e+0, -9.270e-2
2.639e+0, -9.230e-2
2.640e+0, -9.197e-2
2.641e+0, -9.157e-2
2.642e+0, -9.117e-2
2.643e+0, -9.080e-2
2.644e+0, -9.041e-2
2.645e+0, -9.007e-2
2.646e+0, -8.969e-2
2.647e+0, -8.936e-2
2.648e+0, -8.895e-2
2.649e+0, -8.857e-2
2.650e+0, -8.824e-2
2.651e+0, -8.784e-2
2.652e+0, -8.749e-2
2.653e+0, -8.708e-2
2.654e+0, -8.671e-2
2.655e+0, -8.633e-2
2.656e+0, -8.596e-2
2.657e+0, -8.561e-2
2.658e+0, -8.523e-2
2.659e+0, -8.487e-2
2.660e+0, -8.450e-2
2.661e+0, -8.413e-2
2.662e+0, -8.379e-2
2.663e+0, -8.342e-2
2.664e+0, -8.307e-2
2.665e+0, -8.269e-2
2.666e+0, -8.236e-2
2.667e+0, -8.196e-2
2.668e+0, -8.159e-2
2.669e+0, -8.127e-2
2.670e+0, -8.086e-2
2.671e+0, -8.052e-2
2.672e+0, -8.013e-2
2.673e+0, -7.975e-2
2.674e+0, -7.943e-2
2.675e+0, -7.908e-2
2.676e+0, -7.870e-2
2.677e+0, -7.833e-2
2.678e+0, -7.799e-2
2.679e+0, -7.761e-2
2.680e+0, -7.722e-2
2.681e+0, -7.690e-2
2.682e+0, -7.652e-2
2.683e+0, -7.620e-2
2.684e+0, -7.580e-2
2.685e+0, -7.543e-2
2.686e+0, -7.510e-2
2.687e+0, -7.472e-2
2.688e+0, -7.438e-2
2.689e+0, -7.402e-2
2.690e+0, -7.368e-2
2.691e+0, -7.327e-2
2.692e+0, -7.293e-2
2.693e+0, -7.259e-2
2.694e+0, -7.222e-2
2.695e+0, -7.187e-2
2.696e+0, -7.149e-2
2.697e+0, -7.117e-2
2.698e+0, -7.080e-2
2.699e+0, -7.044e-2
2.700e+0, -7.009e-2
2.701e+0, -6.976e-2
2.702e+0, -6.946e-2
2.703e+0, -6.906e-2
2.704e+0, -6.875e-2
2.705e+0, -6.836e-2
2.706e+0, -6.802e-2
2.707e+0, -6.771e-2
2.708e+0, -6.731e-2
2.709e+0, -6.702e-2
2.710e+0, -6.662e-2
2.711e+0, -6.627e-2
2.712e+0, -6.592e-2
2.713e+0, -6.557e-2
2.714e+0, -6.522e-2
2.715e+0, -6.486e-2
2.716e+0, -6.454e-2
2.717e+0, -6.420e-2
2.718e+0, -6.385e-2
2.719e+0, -6.349e-2
2.720e+0, -6.315e-2
2.721e+0, -6.282e-2
2.722e+0, -6.247e-2
2.723e+0, -6.213e-2
2.724e+0, -6.177e-2
2.725e+0, -6.144e-2
2.726e+0, -6.115e-2
2.727e+0, -6.078e-2
2.728e+0, -6.045e-2
2.729e+0, -6.007e-2
2.730e+0, -5.975e-2
2.731e+0, -5.943e-2
2.732e+0, -5.910e-2
2.733e+0, -5.875e-2
2.734e+0, -5.840e-2
2.735e+0, -5.807e-2
2.736e+0, -5.773e-2
2.737e+0, -5.739e-2
2.738e+0, -5.705e-2
2.739e+0, -5.674e-2
2.740e+0, -5.641e-2
2.741e+0, -5.606e-2
2.742e+0, -5.570e-2
2.743e+0, -5.536e-2
2.744e+0, -5.504e-2
2.745e+0, -5.471e-2
2.746e+0, -5.434e-2
2.747e+0, -5.405e-2
2.748e+0, -5.371e-2
2.749e+0, -5.336e-2
2.750e+0, -5.303e-2
2.751e+0, -5.269e-2
2.752e+0, -5.240e-2
2.753e+0, -5.203e-2
2.754e+0, -5.172e-2
2.755e+0, -5.138e-2
2.756e+0, -5.105e-2
2.757e+0, -5.069e-2
2.758e+0, -5.037e-2
2.759e+0, -5.007e-2
2.760e+0, -4.973e-2
2.761e+0, -4.940e-2
2.762e+0, -4.908e-2
2.763e+0, -4.874e-2
2.764e+0, -4.844e-2
2.765e+0, -4.809e-2
2.766e+0, -4.781e-2
2.767e+0, -4.744e-2
2.768e+0, -4.710e-2
2.769e+0, -4.678e-2
2.770e+0, -4.648e-2
2.771e+0, -4.615e-2
2.772e+0, -4.581e-2
2.773e+0, -4.548e-2
2.774e+0, -4.516e-2
2.775e+0, -4.484e-2
2.776e+0, -4.455e-2
2.777e+0, -4.422e-2
2.778e+0, -4.394e-2
2.779e+0, -4.360e-2
2.780e+0, -4.328e-2
2.781e+0, -4.294e-2
2.782e+0, -4.260e-2
2.783e+0, -4.231e-2
2.784e+0, -4.198e-2
2.785e+0, -4.169e-2
2.786e+0, -4.134e-2
2.787e+0, -4.102e-2
2.788e+0, -4.074e-2
2.789e+0, -4.041e-2
2.790e+0, -4.013e-2
2.791e+0, -3.977e-2
2.792e+0, -3.945e-2
2.793e+0, -3.915e-2
2.794e+0, -3.883e-2
2.795e+0, -3.849e-2
2.796e+0, -3.819e-2
2.797e+0, -3.792e-2
2.798e+0, -3.756e-2
2.799e+0, -3.727e-2
2.800e+0, -3.694e-2
2.801e+0, -3.664e-2
2.802e+0, -3.635e-2
2.803e+0, -3.601e-2
2.804e+0, -3.572e-2
2.805e+0, -3.537e-2
2.806e+0, -3.504e-2
2.807e+0, -3.476e-2
2.808e+0, -3.444e-2
2.809e+0, -3.413e-2
2.810e+0, -3.384e-2
2.811e+0, -3.349e-2
2.812e+0, -3.319e-2
2.813e+0, -3.288e-2
2.814e+0, -3.260e-2
2.815e+0, -3.227e-2
2.816e+0, -3.198e-2
2.817e+0, -3.165e-2
2.818e+0, -3.136e-2
2.819e+0, -3.103e-2
2.820e+0, -3.075e-2
2.821e+0, -3.047e-2
2.822e+0, -3.011e-2
2.823e+0, -2.986e-2
2.824e+0, -2.952e-2
2.825e+0, -2.921e-2
2.826e+0, -2.894e-2
2.827e+0, -2.864e-2
2.828e+0, -2.834e-2
2.829e+0, -2.802e-2
2.830e+0, -2.772e-2
2.831e+0, -2.740e-2
2.832e+0, -2.711e-2
2.833e+0, -2.682e-2
2.834e+0, -2.650e-2
2.835e+0, -2.623e-2
2.836e+0, -2.590e-2
2.837e+0, -2.560e-2
2.838e+0, -2.528e-2
2.839e+0, -2.499e-2
2.840e+0, -2.475e-2
2.841e+0, -2.441e-2
2.842e+0, -2.412e-2
2.843e+0, -2.379e-2
2.844e+0, -2.350e-2
2.845e+0, -2.321e-2
2.846e+0, -2.292e-2
2.847e+0, -2.266e-2
2.848e+0, -2.234e-2
2.849e+0, -2.203e-2
2.850e+0, -2.176e-2
2.851e+0, -2.146e-2
2.852e+0, -2.118e-2
2.853e+0, -2.086e-2
2.854e+0, -2.058e-2
2.855e+0, -2.028e-2
2.856e+0, -2.001e-2
2.857e+0, -1.970e-2
2.858e+0, -1.940e-2
2.859e+0, -1.915e-2
2.860e+0, -1.882e-2
2.861e+0, -1.856e-2
2.862e+0, -1.825e-2
2.863e+0, -1.794e-2
2.864e+0, -1.766e-2
2.865e+0, -1.738e-2
2.866e+0, -1.710e-2
2.867e+0, -1.682e-2
2.868e+0, -1.652e-2
2.869e+0, -1.624e-2
2.870e+0, -1.595e-2
2.871e+0, -1.566e-2
2.872e+0, -1.536e-2
2.873e+0, -1.508e-2
2.874e+0, -1.477e-2
2.875e+0, -1.450e-2
2.876e+0, -1.418e-2
2.877e+0, -1.393e-2
2.878e+0, -1.367e-2
2.879e+0, -1.336e-2
2.880e+0, -1.309e-2
2.881e+0, -1.281e-2
2.882e+0, -1.250e-2
2.883e+0, -1.224e-2
2.884e+0, -1.194e-2
2.885e+0, -1.169e-2
2.886e+0, -1.139e-2
2.887e+0, -1.110e-2
2.888e+0, -1.082e-2
2.889e+0, -1.056e-2
2.890e+0, -1.031e-2
2.891e+0, -1.001e-2
2.892e+0, -9.763e-3
2.893e+0, -9.436e-3
2.894e+0, -9.138e-3
2.895e+0, -8.886e-3
2.896e+0, -8.606e-3
2.897e+0, -8.367e-3
2.898e+0, -8.062e-3
2.899e+0, -7.776e-3
2.900e+0, -7.479e-3
2.901e+0, -7.226e-3
2.902e+0, -7.003e-3
2.903e+0, -6.676e-3
2.904e+0, -6.444e-3
2.905e+0, -6.130e-3
2.906e+0, -5.871e-3
2.907e+0, -5.623e-3
2.908e+0, -5.342e-3
2.909e+0, -5.106e-3
2.910e+0, -4.796e-3
2.911e+0, -4.526e-3
2.912e+0, -4.234e-3
2.913e+0, -3.977e-3
2.914e+0, -3.689e-3
2.915e+0, -3.434e-3
2.916e+0, -3.194e-3
2.917e+0, -2.890e-3
2.918e+0, -2.633e-3
2.919e+0, -2.369e-3
2.920e+0, -2.100e-3
2.921e+0, -1.862e-3
2.922e+0, -1.577e-3
2.923e+0, -1.317e-3
2.924e+0, -1.019e-3
2.925e+0, -7.694e-4
2.926e+0, -5.070e-4
2.927e+0, -2.372e-4
2.928e+0, -2.580e-5
2.929e+0, -1.015e-1
2.930e+0, -1.150e-1
2.931e+0, -1.352e-1
2.932e+0, -1.554e-1
2.933e+0, -1.746e-1
2.934e+0, -1.930e-1
2.935e+0, -2.104e-1
2.936e+0, -2.271e-1
2.937e+0, -2.430e-1
2.938e+0, -2.582e-1
2.939e+0, -2.728e-1
2.940e+0, -2.867e-1
2.941e+0, -3.009e-1
2.942e+0, -3.142e-1
2.943e+0, -3.270e-1
2.944e+0, -3.394e-1
2.945e+0, -3.511e-1
2.946e+0, -3.622e-1
2.947e+0, -3.729e-1
2.948e+0, -3.832e-1
2.949e+0, -3.931e-1
2.950e+0, -4.024e-1
2.951e+0, -4.115e-1
2.952e+0, -4.202e-1
2.953e+0, -4.286e-1
2.954e+0, -4.366e-1
2.955e+0, -4.444e-1
2.956e+0, -4.520e-1
2.957e+0, -4.593e-1
2.958e+0, -4.664e-1
2.959e+0, -4.732e-1
2.960e+0, -4.799e-1
2.961e+0, -4.863e-1
2.962e+0, -4.925e-1
2.963e+0, -4.986e-1
2.964e+0, -5.045e-1
2.965e+0, -5.102e-1
2.966e+0, -5.158e-1
2.967e+0, -5.212e-1
2.968e+0, -5.264e-1
2.969e+0, -5.315e-1
2.970e+0, -5.365e-1
2.971e+0, -5.413e-1
2.972e+0, -5.460e-1
2.973e+0, -5.505e-1
2.974e+0, -5.549e-1
2.975e+0, -5.592e-1
2.976e+0, -5.634e-1
2.977e+0, -5.676e-1
2.978e+0, -5.716e-1
2.979e+0, -5.756e-1
2.980e+0, -5.793e-1
2.981e+0, -5.831e-1
2.982e+0, -5.868e-1
2.983e+0, -5.904e-1
2.984e+0, -5.939e-1
2.985e+0, -5.974e-1
2.986e+0, -6.007e-1
2.987e+0, -6.041e-1
2.988e+0, -6.073e-1
2.989e+0, -6.105e-1
2.990e+0, -6.136e-1
2.991e+0, -6.166e-1
2.992e+0, -6.196e-1
2.993e+0, -6.225e-1
2.994e+0, -6.254e-1
2.995e+0, -6.282e-1
2.996e+0, -6.310e-1
2.997e+0, -6.337e-1
2.998e+0, -6.364e-1
2.999e+0, -6.389e-1
3.000e+0, -6.415e-1
3.001e+0, -6.441e-1
3.002e+0, -6.465e-1
3.003e+0, -6.490e-1
3.004e+0, -6.514e-1
3.005e+0, -6.538e-1
3.006e+0, -6.561e-1
3.007e+0, -6.584e-1
3.008e+0, -6.607e-1
3.009e+0, -6.629e-1
3.010e+0, -6.650e-1
3.011e+0, -6.672e-1
3.012e+0, -6.692e-1
3.013e+0, -6.713e-1
3.014e+0, -6.732e-1
3.015e+0, -6.752e-1
3.016e+0, -6.771e-1
3.017e+0, -6.790e-1
3.018e+0, -6.808e-1
3.019e+0, -6.827e-1
3.020e+0, -6.846e-1
3.021e+0, -6.863e-1
3.022e+0, -6.881e-1
3.023e+0, -6.899e-1
3.024e+0, -6.916e-1
3.025e+0, -6.934e-1
3.026e+0, -6.951e-1
3.027e+0, -6.968e-1
3.028e+0, -6.985e-1
3.029e+0, -7.001e-1
3.030e+0, -7.018e-1
3.031e+0, -7.034e-1
3.032e+0, -7.051e-1
3.033e+0, -7.066e-1
3.034e+0, -7.083e-1
3.035e+0, -7.099e-1
3.036e+0, -7.114e-1
3.037e+0, -7.130e-1
3.038e+0, -7.145e-1
3.039e+0, -7.162e-1
3.040e+0, -7.178e-1
3.041e+0, -7.194e-1
3.042e+0, -7.212e-1
3.043e+0, -7.230e-1
3.044e+0, -7.249e-1
3.045e+0, -7.268e-1
3.046e+0, -7.283e-1
3.047e+0, -7.295e-1
3.048e+0, -7.308e-1
3.049e+0, -7.321e-1
3.050e+0, -7.335e-1
3.051e+0, -7.349e-1
3.052e+0, -7.362e-1
3.053e+0, -7.375e-1
3.054e+0, -7.387e-1
3.055e+0, -7.399e-1
3.056e+0, -7.411e-1
3.057e+0, -7.423e-1
3.058e+0, -7.435e-1
3.059e+0, -7.445e-1
3.060e+0, -7.456e-1
3.061e+0, -7.466e-1
3.062e+0, -7.476e-1
3.063e+0, -7.486e-1
3.064e+0, -7.496e-1
3.065e+0, -7.506e-1
3.066e+0, -7.517e-1
3.067e+0, -7.527e-1
3.068e+0, -7.538e-1
3.069e+0, -7.549e-1
3.070e+0, -7.560e-1
3.071e+0, -7.571e-1
3.072e+0, -7.582e-1
3.073e+0, -7.593e-1
3.074e+0, -7.605e-1
3.075e+0, -7.616e-1
3.076e+0, -7.627e-1
3.077e+0, -7.639e-1
3.078e+0, -7.649e-1
3.079e+0, -7.660e-1
3.080e+0, -7.671e-1
3.081e+0, -7.681e-1
3.082e+0, -7.691e-1
3.083e+0, -7.700e-1
3.084e+0, -7.710e-1
3.085e+0, -7.719e-1
3.086e+0, -7.728e-1
3.087e+0, -7.738e-1
3.088e+0, -7.747e-1
3.089e+0, -7.756e-1
3.090e+0, -7.765e-1
3.091e+0, -7.774e-1
3.092e+0, -7.783e-1
3.093e+0, -7.792e-1
3.094e+0, -7.801e-1
3.095e+0, -7.809e-1
3.096e+0, -7.819e-1
3.097e+0, -7.827e-1
3.098e+0, -7.836e-1
3.099e+0, -7.844e-1
3.100e+0, -7.853e-1
3.101e+0, -7.861e-1
3.102e+0, -7.870e-1
3.103e+0, -7.878e-1
3.104e+0, -7.887e-1
3.105e+0, -7.895e-1
3.106e+0, -7.903e-1
3.107e+0, -7.911e-1
3.108e+0, -7.920e-1
3.109e+0, -7.927e-1
3.110e+0, -7.936e-1
3.111e+0, -7.944e-1
3.112e+0, -7.952e-1
3.113e+0, -7.960e-1
3.114e+0, -7.968e-1
3.115e+0, -7.976e-1
3.116e+0, -7.983e-1
3.117e+0, -7.992e-1
3.118e+0, -7.999e-1
3.119e+0, -8.007e-1
3.120e+0, -8.015e-1
3.121e+0, -8.023e-1
3.122e+0, -8.031e-1
3.123e+0, -8.038e-1
3.124e+0, -8.045e-1
3.125e+0, -8.053e-1
3.126e+0, -8.061e-1
3.127e+0, -8.068e-1
3.128e+0, -8.076e-1
3.129e+0, -8.083e-1
3.130e+0, -8.090e-1
3.131e+0, -8.097e-1
3.132e+0, -8.105e-1
3.133e+0, -8.112e-1
3.134e+0, -8.120e-1
3.135e+0, -8.126e-1
3.136e+0, -8.134e-1
3.137e+0, -8.140e-1
3.138e+0, -8.148e-1
3.139e+0, -8.155e-1
3.140e+0, -8.162e-1
3.141e+0, -8.169e-1
3.142e+0, -8.175e-1
3.143e+0, -8.182e-1
3.144e+0, -8.189e-1
3.145e+0, -8.196e-1
3.146e+0, -8.203e-1
3.147e+0, -8.209e-1
3.148e+0, -8.216e-1
3.149e+0, -8.222e-1
3.150e+0, -8.229e-1
3.151e+0, -8.235e-1
3.152e+0, -8.241e-1
3.153e+0, -8.248e-1
3.154e+0, -8.254e-1
3.155e+0, -8.260e-1
3.156e+0, -8.266e-1
3.157e+0, -8.273e-1
3.158e+0, -8.279e-1
3.159e+0, -8.285e-1
3.160e+0, -8.291e-1
3.161e+0, -8.297e-1
3.162e+0, -8.303e-1
3.163e+0, -8.309e-1
3.164e+0, -8.315e-1
3.165e+0, -8.321e-1
3.166e+0, -8.327e-1
3.167e+0, -8.332e-1
3.168e+0, -8.338e-1
3.169e+0, -8.344e-1
3.170e+0, -8.350e-1
3.171e+0, -8.356e-1
3.172e+0, -8.362e-1
3.173e+0, -8.367e-1
3.174e+0, -8.373e-1
3.175e+0, -8.379e-1
3.176e+0, -8.385e-1
3.177e+0, -8.390e-1
3.178e+0, -8.396e-1
3.179e+0, -8.402e-1
3.180e+0, -8.406e-1
3.181e+0, -8.411e-1
3.182e+0, -8.417e-1
3.183e+0, -8.422e-1
3.184e+0, -8.428e-1
3.185e+0, -8.432e-1
3.186e+0, -8.438e-1
3.187e+0, -8.442e-1
3.188e+0, -8.448e-1
3.189e+0, -8.453e-1
3.190e+0, -8.458e-1
3.191e+0, -8.463e-1
3.192e+0, -8.467e-1
3.193e+0, -8.472e-1
3.194e+0, -8.477e-1
3.195e+0, -8.482e-1
3.196e+0, -8.487e-1
3.197e+0, -8.491e-1
3.198e+0, -8.496e-1
3.199e+0, -8.501e-1
3.200e+0, -8.506e-1
3.201e+0, -8.510e-1
3.202e+0, -8.515e-1
3.203e+0, -8.520e-1
3.204e+0, -8.525e-1
3.205e+0, -8.529e-1
3.206e+0, -8.534e-1
3.207e+0, -8.539e-1
3.208e+0, -8.543e-1
3.209e+0, -8.548e-1
3.210e+0, -8.553e-1
3.211e+0, -8.557e-1
3.212e+0, -8.562e-1
3.213e+0, -8.566e-1
3.214e+0, -8.571e-1
3.215e+0, -8.577e-1
3.216e+0, -8.581e-1
3.217e+0, -8.585e-1
3.218e+0, -8.590e-1
3.219e+0, -8.595e-1
3.220e+0, -8.600e-1
3.221e+0, -8.604e-1
3.222e+0, -8.609e-1
3.223e+0, -8.613e-1
3.224e+0, -8.618e-1
3.225e+0, -8.622e-1
3.226e+0, -8.627e-1
3.227e+0, -8.631e-1
3.228e+0, -8.636e-1
3.229e+0, -8.640e-1
3.230e+0, -8.645e-1
3.231e+0, -8.649e-1
3.232e+0, -8.653e-1
3.233e+0, -8.658e-1
3.234e+0, -8.663e-1
3.235e+0, -8.667e-1
3.236e+0, -8.671e-1
3.237e+0, -8.676e-1
3.238e+0, -8.680e-1
3.239e+0, -8.685e-1
3.240e+0, -8.688e-1
3.241e+0, -8.693e-1
3.242e+0, -8.697e-1
3.243e+0, -8.702e-1
3.244e+0, -8.706e-1
3.245e+0, -8.710e-1
3.246e+0, -8.715e-1
3.247e+0, -8.719e-1
3.248e+0, -8.723e-1
3.249e+0, -8.727e-1
3.250e+0, -8.731e-1
3.251e+0, -8.735e-1
3.252e+0, -8.740e-1
3.253e+0, -8.744e-1
3.254e+0, -8.748e-1
3.255e+0, -8.752e-1
3.256e+0, -8.756e-1
3.257e+0, -8.760e-1
3.258e+0, -8.765e-1
3.259e+0, -8.769e-1
3.260e+0, -8.773e-1
3.261e+0, -8.777e-1
3.262e+0, -8.781e-1
3.263e+0, -8.785e-1
3.264e+0, -8.789e-1
3.265e+0, -8.794e-1
3.266e+0, -8.797e-1
3.267e+0, -8.802e-1
3.268e+0, -8.806e-1
3.269e+0, -8.810e-1
3.270e+0, -8.814e-1
3.271e+0, -8.818e-1
3.272e+0, -8.821e-1
3.273e+0, -8.825e-1
3.274e+0, -8.829e-1
3.275e+0, -8.833e-1
3.276e+0, -8.837e-1
3.277e+0, -8.841e-1
3.278e+0, -8.845e-1
3.279e+0, -8.849e-1
3.280e+0, -8.853e-1
3.281e+0, -8.856e-1
3.282e+0, -8.861e-1
3.283e+0, -8.864e-1
3.284e+0, -8.868e-1
3.285e+0, -8.872e-1
3.286e+0, -8.876e-1
3.287e+0, -8.880e-1
3.288e+0, -8.884e-1
3.289e+0, -8.888e-1
3.290e+0, -8.891e-1
3.291e+0, -8.895e-1
3.292e+0, -8.899e-1
3.293e+0, -8.902e-1
3.294e+0, -8.906e-1
3.295e+0, -8.910e-1
3.296e+0, -8.914e-1
3.297e+0, -8.917e-1
3.298e+0, -8.921e-1
3.299e+0, -8.925e-1
3.300e+0, -8.928e-1
3.301e+0, -8.932e-1
3.302e+0, -8.936e-1
3.303e+0, -8.939e-1
3.304e+0, -8.943e-1
3.305e+0, -8.947e-1
3.306e+0, -8.950e-1
3.307e+0, -8.954e-1
3.308e+0, -8.958e-1
3.309e+0, -8.961e-1
3.310e+0, -8.965e-1
3.311e+0, -8.968e-1
3.312e+0, -8.972e-1
3.313e+0, -8.975e-1
3.314e+0, -8.979e-1
3.315e+0, -8.983e-1
3.316e+0, -8.986e-1
3.317e+0, -8.989e-1
3.318e+0, -8.993e-1
3.319e+0, -8.997e-1
3.320e+0, -9.000e-1
3.321e+0, -9.004e-1
3.322e+0, -9.007e-1
3.323e+0, -9.010e-1
3.324e+0, -9.014e-1
3.325e+0, -9.018e-1
3.326e+0, -9.021e-1
3.327e+0, -9.024e-1
3.328e+0, -9.028e-1
3.329e+0, -9.031e-1
3.330e+0, -9.035e-1
3.331e+0, -9.038e-1
3.332e+0, -9.041e-1
3.333e+0, -9.045e-1
3.334e+0, -9.048e-1
3.335e+0, -9.051e-1
3.336e+0, -9.055e-1
3.337e+0, -9.058e-1
3.338e+0, -9.062e-1
3.339e+0, -9.065e-1
3.340e+0, -9.068e-1
3.341e+0, -9.072e-1
3.342e+0, -9.075e-1
3.343e+0, -9.078e-1
3.344e+0, -9.082e-1
3.345e+0, -9.085e-1
3.346e+0, -9.088e-1
3.347e+0, -9.091e-1
3.348e+0, -9.095e-1
3.349e+0, -9.098e-1
3.350e+0, -9.101e-1
3.351e+0, -9.104e-1
3.352e+0, -9.107e-1
3.353e+0, -9.111e-1
3.354e+0, -9.114e-1
3.355e+0, -9.117e-1
3.356e+0, -9.120e-1
3.357e+0, -9.124e-1
3.358e+0, -9.127e-1
3.359e+0, -9.130e-1
3.360e+0, -9.133e-1
3.361e+0, -9.136e-1
3.362e+0, -9.139e-1
3.363e+0, -9.143e-1
3.364e+0, -9.146e-1
3.365e+0, -9.149e-1
3.366e+0, -9.152e-1
3.367e+0, -9.155e-1
3.368e+0, -9.159e-1
3.369e+0, -9.162e-1
3.370e+0, -9.165e-1
3.371e+0, -9.168e-1
3.372e+0, -9.171e-1
3.373e+0, -9.174e-1
3.374e+0, -9.177e-1
3.375e+0, -9.180e-1
3.376e+0, -9.183e-1
3.377e+0, -9.187e-1
3.378e+0, -9.190e-1
3.379e+0, -9.193e-1
3.380e+0, -9.196e-1
3.381e+0, -9.199e-1
3.382e+0, -9.202e-1
3.383e+0, -9.205e-1
3.384e+0, -9.208e-1
3.385e+0, -9.211e-1
3.386e+0, -9.214e-1
3.387e+0, -9.217e-1
3.388e+0, -9.220e-1
3.389e+0, -9.223e-1
3.390e+0, -9.226e-1
3.391e+0, -9.229e-1
3.392e+0, -9.232e-1
3.393e+0, -9.235e-1
3.394e+0, -9.238e-1
3.395e+0, -9.241e-1
3.396e+0, -9.244e-1
3.397e+0, -9.247e-1
3.398e+0, -9.250e-1
3.399e+0, -9.253e-1
3.400e+0, -9.256e-1
3.401e+0, -9.259e-1
3.402e+0, -9.262e-1
3.403e+0, -9.265e-1
3.404e+0, -9.268e-1
3.405e+0, -9.271e-1
3.406e+0, -9.274e-1
3.407e+0, -9.276e-1
3.408e+0, -9.280e-1
3.409e+0, -9.282e-1
3.410e+0, -9.285e-1
3.411e+0, -9.288e-1
3.412e+0, -9.291e-1
3.413e+0, -9.294e-1
3.414e+0, -9.297e-1
3.415e+0, -9.300e-1
3.416e+0, -9.303e-1
3.417e+0, -9.305e-1
3.418e+0, -9.308e-1
3.419e+0, -9.311e-1
3.420e+0, -9.314e-1
3.421e+0, -9.317e-1
3.422e+0, -9.320e-1
3.423e+0, -9.322e-1
3.424e+0, -9.325e-1
3.425e+0, -9.328e-1
3.426e+0, -9.331e-1
3.427e+0, -9.334e-1
3.428e+0, -9.336e-1
3.429e+0, -9.339e-1
3.430e+0, -9.342e-1
3.431e+0, -9.345e-1
3.432e+0, -9.348e-1
3.433e+0, -9.350e-1
3.434e+0, -9.353e-1
3.435e+0, -9.356e-1
3.436e+0, -9.359e-1
3.437e+0, -9.361e-1
3.438e+0, -9.364e-1
3.439e+0, -9.367e-1
3.440e+0, -9.370e-1
3.441e+0, -9.373e-1
3.442e+0, -9.375e-1
3.443e+0, -9.378e-1
3.444e+0, -9.381e-1
3.445e+0, -9.384e-1
3.446e+0, -9.387e-1
3.447e+0, -9.389e-1
3.448e+0, -9.392e-1
3.449e+0, -9.394e-1
3.450e+0, -9.397e-1
3.451e+0, -9.400e-1
3.452e+0, -9.402e-1
3.453e+0, -9.406e-1
3.454e+0, -9.408e-1
3.455e+0, -9.410e-1
3.456e+0, -9.413e-1
3.457e+0, -9.416e-1
3.458e+0, -9.419e-1
3.459e+0, -9.421e-1
3.460e+0, -9.424e-1
3.461e+0, -9.426e-1
3.462e+0, -9.429e-1
3.463e+0, -9.432e-1
3.464e+0, -9.434e-1
3.465e+0, -9.437e-1
3.466e+0, -9.440e-1
3.467e+0, -9.443e-1
3.468e+0, -9.445e-1
3.469e+0, -9.448e-1
3.470e+0, -9.451e-1
3.471e+0, -9.453e-1
3.472e+0, -9.456e-1
3.473e+0, -9.458e-1
3.474e+0, -9.460e-1
3.475e+0, -9.463e-1
3.476e+0, -9.466e-1
3.477e+0, -9.468e-1
3.478e+0, -9.471e-1
3.479e+0, -9.473e-1
3.480e+0, -9.476e-1
3.481e+0, -9.478e-1
3.482e+0, -9.481e-1
3.483e+0, -9.484e-1
3.484e+0, -9.486e-1
3.485e+0, -9.489e-1
3.486e+0, -9.491e-1
3.487e+0, -9.494e-1
3.488e+0, -9.497e-1
3.489e+0, -9.499e-1
3.490e+0, -9.502e-1
3.491e+0, -9.504e-1
3.492e+0, -9.507e-1
3.493e+0, -9.509e-1
3.494e+0, -9.512e-1
3.495e+0, -9.514e-1
3.496e+0, -9.517e-1
3.497e+0, -9.519e-1
3.498e+0, -9.522e-1
3.499e+0, -9.524e-1
3.500e+0, -9.527e-1
3.501e+0, -9.530e-1
3.502e+0, -9.532e-1
3.503e+0, -9.535e-1
3.504e+0, -9.537e-1
3.505e+0, -9.539e-1
3.506e+0, -9.542e-1
3.507e+0, -9.544e-1
3.508e+0, -9.547e-1
3.509e+0, -9.549e-1
3.510e+0, -9.552e-1
3.511e+0, -9.555e-1
3.512e+0, -9.557e-1
3.513e+0, -9.559e-1
3.514e+0, -9.562e-1
3.515e+0, -9.565e-1
3.516e+0, -9.567e-1
3.517e+0, -9.569e-1
3.518e+0, -9.572e-1
3.519e+0, -9.574e-1
3.520e+0, -9.577e-1
3.521e+0, -9.579e-1
3.522e+0, -9.582e-1
3.523e+0, -9.584e-1
3.524e+0, -9.586e-1
3.525e+0, -9.589e-1
3.526e+0, -9.591e-1
3.527e+0, -9.594e-1
3.528e+0, -9.596e-1
3.529e+0, -9.598e-1
3.530e+0, -9.601e-1
3.531e+0, -9.603e-1
3.532e+0, -9.606e-1
3.533e+0, -9.608e-1
3.534e+0, -9.610e-1
3.535e+0, -9.613e-1
3.536e+0, -9.615e-1
3.537e+0, -9.617e-1
3.538e+0, -9.620e-1
3.539e+0, -9.622e-1
3.540e+0, -9.625e-1
3.541e+0, -9.627e-1
3.542e+0, -9.629e-1
3.543e+0, -9.631e-1
3.544e+0, -9.634e-1
3.545e+0, -9.636e-1
3.546e+0, -9.639e-1
3.547e+0, -9.641e-1
3.548e+0, -9.643e-1
3.549e+0, -9.646e-1
3.550e+0, -9.648e-1
3.551e+0, -9.651e-1
3.552e+0, -9.653e-1
3.553e+0, -9.655e-1
3.554e+0, -9.658e-1
3.555e+0, -9.660e-1
3.556e+0, -9.662e-1
3.557e+0, -9.664e-1
3.558e+0, -9.667e-1
3.559e+0, -9.669e-1
3.560e+0, -9.672e-1
3.561e+0, -9.674e-1
3.562e+0, -9.676e-1
3.563e+0, -9.679e-1
3.564e+0, -9.681e-1
3.565e+0, -9.683e-1
3.566e+0, -9.686e-1
3.567e+0, -9.687e-1
3.568e+0, -9.690e-1
3.569e+0, -9.692e-1
3.570e+0, -9.695e-1
3.571e+0, -9.697e-1
3.572e+0, -9.699e-1
3.573e+0, -9.701e-1
3.574e+0, -9.704e-1
3.575e+0, -9.706e-1
3.576e+0, -9.708e-1
3.577e+0, -9.711e-1
3.578e+0, -9.713e-1
3.579e+0, -9.715e-1
3.580e+0, -9.717e-1
3.581e+0, -9.719e-1
3.582e+0, -9.722e-1
3.583e+0, -9.724e-1
3.584e+0, -9.726e-1
3.585e+0, -9.728e-1
3.586e+0, -9.731e-1
3.587e+0, -9.733e-1
3.588e+0, -9.735e-1
3.589e+0, -9.738e-1
3.590e+0, -9.740e-1
3.591e+0, -9.742e-1
3.592e+0, -9.744e-1
3.593e+0, -9.747e-1
3.594e+0, -9.749e-1
3.595e+0, -9.751e-1
3.596e+0, -9.754e-1
3.597e+0, -9.755e-1
3.598e+0, -9.758e-1
3.599e+0, -9.760e-1
3.600e+0, -9.762e-1
3.601e+0, -9.765e-1
3.602e+0, -9.767e-1
3.603e+0, -9.769e-1
3.604e+0, -9.771e-1
3.605e+0, -9.773e-1
3.606e+0, -9.776e-1
3.607e+0, -9.778e-1
3.608e+0, -9.780e-1
3.609e+0, -9.782e-1
3.610e+0, -9.784e-1
3.611e+0, -9.787e-1
3.612e+0, -9.789e-1
3.613e+0, -9.791e-1
3.614e+0, -9.793e-1
3.615e+0, -9.795e-1
3.616e+0, -9.797e-1
3.617e+0, -9.800e-1
3.618e+0, -9.802e-1
3.619e+0, -9.804e-1
3.620e+0, -9.806e-1
3.621e+0, -9.808e-1
3.622e+0, -9.811e-1
3.623e+0, -9.812e-1
3.624e+0, -9.815e-1
3.625e+0, -9.817e-1
3.626e+0, -9.819e-1
3.627e+0, -9.821e-1
3.628e+0, -9.823e-1
3.629e+0, -9.825e-1
3.630e+0, -9.827e-1
3.631e+0, -9.830e-1
3.632e+0, -9.832e-1
3.633e+0, -9.834e-1
3.634e+0, -9.836e-1
3.635e+0, -9.838e-1
3.636e+0, -9.840e-1
3.637e+0, -9.842e-1
3.638e+0, -9.844e-1
3.639e+0, -9.847e-1
3.640e+0, -9.849e-1
3.641e+0, -9.851e-1
3.642e+0, -9.853e-1
3.643e+0, -9.855e-1
3.644e+0, -9.857e-1
3.645e+0, -9.859e-1
3.646e+0, -9.861e-1
3.647e+0, -9.863e-1
3.648e+0, -9.865e-1
3.649e+0, -9.867e-1
3.650e+0, -9.870e-1
3.651e+0, -9.872e-1
3.652e+0, -9.873e-1
3.653e+0, -9.876e-1
3.654e+0, -9.878e-1
3.655e+0, -9.880e-1
3.656e+0, -9.882e-1
3.657e+0, -9.884e-1
3.658e+0, -9.887e-1
3.659e+0, -9.888e-1
3.660e+0, -9.890e-1
3.661e+0, -9.892e-1
3.662e+0, -9.894e-1
3.663e+0, -9.897e-1
3.664e+0, -9.898e-1
3.665e+0, -9.901e-1
3.666e+0, -9.903e-1
3.667e+0, -9.905e-1
3.668e+0, -9.907e-1
3.669e+0, -9.909e-1
3.670e+0, -9.911e-1
3.671e+0, -9.913e-1
3.672e+0, -9.915e-1
3.673e+0, -9.917e-1
3.674e+0, -9.919e-1
3.675e+0, -9.921e-1
3.676e+0, -9.923e-1
3.677e+0, -9.925e-1
3.678e+0, -9.927e-1
3.679e+0, -9.929e-1
3.680e+0, -9.931e-1
3.681e+0, -9.933e-1
3.682e+0, -9.936e-1
3.683e+0, -9.937e-1
3.684e+0, -9.940e-1
3.685e+0, -9.942e-1
3.686e+0, -9.944e-1
3.687e+0, -9.946e-1
3.688e+0, -9.948e-1
3.689e+0, -9.950e-1
3.690e+0, -9.952e-1
3.691e+0, -9.954e-1
3.692e+0, -9.956e-1
3.693e+0, -9.958e-1
3.694e+0, -9.960e-1
3.695e+0, -9.962e-1
3.696e+0, -9.964e-1
3.697e+0, -9.966e-1
3.698e+0, -9.968e-1
3.699e+0, -9.970e-1
3.700e+0, -9.972e-1
3.701e+0, -9.974e-1
3.702e+0, -9.976e-1
3.703e+0, -9.978e-1
3.704e+0, -9.980e-1
3.705e+0, -9.982e-1
3.706e+0, -9.984e-1
3.707e+0, -9.986e-1
3.708e+0, -9.988e-1
3.709e+0, -9.990e-1
3.710e+0, -9.992e-1
3.711e+0, -9.994e-1
3.712e+0, -9.996e-1
3.713e+0, -9.998e-1
3.714e+0, -9.999e-1
